m/z	Absolute Intensity
36.00	13
37.00	143
38.10	543
39.10	3327
40.05	89
41.10	13172
42.10	3663
43.10	29354
44.05	1867
45.05	2321
46.00	184
47.00	212
48.00	12
49.00	92
50.10	100
52.00	25
53.00	302
55.10	1364
59.10	139
60.00	458
61.10	25
62.10	4
63.10	9
64.10	16
67.10	31
69.10	67
71.05	703
73.10	7973
74.10	395
75.10	2
76.10	10
77.10	118
78.10	25
80.10	47
81.10	60
82.10	42
84.10	51
87.10	250
88.10	2547
89.10	95
93.10	35
94.10	2
95.10	46
97.10	53
99.10	26
101.10	45
103.10	36
104.10	15
105.10	41
106.10	47
107.10	27
108.10	14
111.10	15
113.10	61
114.10	14
115.10	1
117.10	13
118.10	3
119.10	23
122.10	16
124.10	16
127.10	37
129.10	15
132.10	29
133.10	85
134.10	10
138.10	19
139.10	25
142.10	27
143.10	33
144.10	25
153.10	10
154.10	34
155.10	37
156.10	6
157.10	59
158.10	36
159.10	46
160.10	36
162.10	5
164.10	31
165.10	29
166.10	22
167.10	17
168.10	11
170.10	6
171.10	17
172.10	11
173.10	36
174.10	54
175.10	3
176.10	18
177.10	22
178.10	5
180.10	7
181.10	35
182.10	34
183.10	23
184.10	4
185.10	14
187.10	34
189.10	8
190.10	14
191.10	114
193.10	1
198.10	13
199.10	31
201.10	9
204.10	2
206.10	12
207.10	102
208.10	21
209.10	76
210.10	17
211.10	2
215.10	43
216.10	1
217.10	17
218.10	14
219.10	10
221.10	31
223.10	31
225.10	64
226.10	26
227.10	8
231.10	20
232.10	55
234.10	15
235.10	36
236.10	26
237.10	52
239.10	14
241.10	30
242.10	53
245.10	8
247.10	54
249.10	15
251.10	51
253.10	18
256.10	2
257.10	31
258.10	4
261.10	12
262.10	13
265.10	21
266.10	24
267.10	60
268.10	33
270.10	34
274.10	9
275.10	22
276.10	38
279.10	21
280.10	9
281.10	34
282.10	6
283.10	7
285.10	3
286.10	9
287.10	40
288.10	13
289.10	12
290.10	32
292.10	17
296.10	37
299.10	19
300.10	15
301.10	33
302.10	11
303.10	4
304.10	30
305.10	39
306.10	14
309.10	4
310.10	31
312.10	53
314.10	28
315.10	26
318.10	10
323.10	49
324.10	13
325.10	9
326.10	50
327.10	25
328.10	22
331.10	17
336.10	19
337.10	5
342.10	41
345.10	2
347.10	10
350.10	5
351.10	64
352.10	47
354.10	26
356.10	11
357.10	7
358.10	11
359.10	20
365.10	8
367.10	23
370.10	24
371.10	13
373.10	18
376.10	24
379.10	44
380.10	10
381.10	55
383.10	10
385.10	7
389.10	3
390.10	51
392.10	35
393.10	9
395.10	8
