m/z	Absolute Intensity
35.00	21
35.70	13
37.00	17
39.10	494
40.10	151
41.10	2421
44.10	1009
45.10	380
46.10	58
48.10	1
49.10	24
50.10	10
52.10	20
53.10	106
54.10	25
55.10	850
56.10	945
57.15	3366
58.10	43
59.10	156
62.10	26
63.10	33
66.10	116
68.10	183
69.10	156
73.10	462
74.10	4166
75.10	79
76.10	2
78.10	3
79.10	100
83.10	51
84.10	12
85.10	89
86.10	49
87.10	1150
88.10	95
91.10	53
92.10	10
93.10	61
94.10	63
96.10	70
97.10	86
99.10	7
101.10	155
102.10	4
104.10	6
106.10	37
107.10	27
113.10	8
114.10	22
116.10	19
117.10	47
118.10	17
121.10	24
122.10	18
124.10	15
126.10	104
127.10	79
130.10	60
131.10	47
136.10	41
137.10	8
138.10	60
140.10	42
142.10	30
143.10	6
146.10	8
147.10	3
150.10	12
151.10	70
153.10	9
155.10	12
156.10	18
160.10	56
162.10	33
163.10	5
165.10	25
166.10	41
167.10	43
168.10	22
170.10	27
171.10	15
172.10	39
174.10	6
175.10	2
176.10	15
179.10	11
181.10	2
182.10	4
183.10	48
185.10	6
186.10	44
192.10	15
193.10	12
197.10	45
198.10	33
205.10	60
210.10	55
211.10	56
212.10	9
215.10	19
217.10	49
219.10	15
220.10	34
222.10	7
223.10	4
230.10	14
231.10	13
233.10	87
234.10	6
235.10	55
236.10	9
240.10	21
244.10	2
245.10	19
246.10	12
248.10	2
252.10	1
255.10	4
256.10	52
257.10	25
258.10	9
259.10	37
260.10	31
261.10	9
262.10	10
265.10	5
266.10	15
270.10	1
273.10	9
275.10	1
282.10	16
285.10	13
286.10	36
288.10	4
289.10	11
290.10	6
291.10	9
292.10	15
297.10	12
299.10	5
300.10	13
304.10	26
306.10	26
308.10	5
309.10	1
310.10	3
311.10	21
312.10	11
314.10	22
316.10	1
317.10	4
318.10	36
320.10	17
321.10	55
322.10	24
325.10	40
326.10	21
327.10	21
328.10	22
329.10	39
330.10	32
335.10	3
337.10	20
340.10	5
341.10	93
342.10	39
343.10	12
345.10	4
348.10	11
349.10	37
350.10	34
353.10	15
354.10	46
356.10	24
360.10	10
361.10	1
364.10	30
365.10	52
366.10	16
367.10	20
372.10	19
378.10	18
380.10	1
384.10	24
387.10	3
389.10	12
390.10	18
394.10	2
395.10	3
396.10	30
397.10	63
398.10	63
399.10	3
