m/z	Absolute Intensity
36.00	39
37.00	254
38.10	679
39.10	3069
40.05	40
41.10	63
42.10	91
46.00	29
48.10	13
49.10	297
50.10	3465
51.10	9730
52.10	3670
53.10	443
55.10	142
59.10	159
60.10	18
61.10	219
62.10	817
63.10	2101
64.10	342
65.10	397
67.10	23
69.10	140
70.10	122
73.10	251
74.05	1252
75.10	1164
76.10	1403
77.10	7310
78.10	15563
79.10	954
81.10	11
85.10	52
86.10	83
87.10	104
88.10	47
89.10	473
90.10	50
91.15	734
92.10	139
94.10	90
95.10	18
96.10	1
97.10	503
98.10	195
99.10	171
101.10	336
102.10	2452
103.10	14002
104.10	31813
105.15	2854
106.15	462
107.20	21
115.20	2
117.20	52
119.20	31
122.20	56
125.10	4
126.10	90
127.10	28
128.10	26
130.10	13
131.10	26
132.10	9
134.10	14
136.10	9
139.20	49
142.20	31
143.10	46
146.10	23
150.10	5
152.20	1
153.10	30
155.20	5
156.10	10
157.10	7
158.10	54
160.10	3
167.10	28
168.10	37
169.20	57
170.20	33
171.10	29
173.10	46
174.20	59
175.10	2
178.10	6
179.20	40
181.10	9
183.10	10
184.20	86
187.10	27
190.10	18
192.20	24
193.20	11
195.10	25
197.10	28
198.20	4
199.10	41
200.20	9
201.10	2
203.10	34
204.10	55
205.10	32
208.20	25
209.20	5
210.20	1
211.10	32
213.20	45
214.20	7
216.10	9
217.20	17
222.10	51
223.20	39
225.20	34
227.10	35
228.10	13
229.20	22
230.20	22
231.20	22
233.10	17
234.20	25
236.20	37
237.10	41
241.10	15
242.20	21
244.10	39
246.10	8
247.20	17
250.20	8
252.20	20
253.20	1
254.10	37
255.20	5
256.10	15
258.10	22
260.10	19
261.10	25
264.20	7
266.10	7
267.10	22
268.10	10
269.10	44
270.20	30
271.10	5
272.10	37
273.20	26
274.20	26
276.10	29
277.20	36
279.20	5
282.10	26
284.10	22
286.10	51
287.10	29
288.20	7
291.10	49
292.10	17
293.20	61
294.10	56
296.10	30
297.20	5
299.10	31
302.10	22
303.20	4
305.10	14
308.20	5
311.20	3
312.20	46
313.20	8
316.20	5
317.10	18
318.10	5
319.10	64
321.10	49
322.20	27
324.10	26
325.10	27
326.20	12
329.20	20
332.20	5
335.20	29
336.10	2
337.10	45
338.20	36
340.10	4
341.10	33
344.20	29
345.20	22
347.10	27
348.10	20
354.10	9
357.10	14
358.10	18
360.10	11
361.10	20
362.10	7
364.10	35
365.20	2
366.10	48
367.10	3
373.20	43
374.10	48
376.10	27
378.20	8
379.10	29
381.10	18
383.10	14
386.20	23
388.20	31
389.10	16
392.20	14
393.20	2
394.10	7
395.10	16
396.10	13
397.20	14
398.10	19
