m/z	Absolute Intensity
37.00	25
38.00	56
39.05	511
41.10	683
42.15	519
43.10	1401
44.05	242
47.00	35
52.10	37
54.10	104
55.10	869
56.15	329
57.15	2663
58.10	54
62.10	11
64.10	15
67.10	28
68.10	97
69.10	429
70.15	767
71.20	1610
72.20	10
76.10	4
78.20	66
80.10	16
81.20	108
82.20	118
83.20	165
84.15	216
85.10	1023
89.10	27
93.10	4
94.10	21
98.10	193
99.10	3
100.10	25
101.10	2
102.10	16
103.10	1
104.10	20
105.10	76
111.10	23
112.10	40
113.10	208
114.10	68
115.10	85
116.10	23
119.10	11
121.10	139
126.10	15
127.10	199
132.10	36
133.10	2
134.10	47
135.10	87
136.10	13
139.10	17
141.10	16
144.10	15
146.10	10
148.10	8
152.10	4
153.10	54
157.10	5
158.10	64
159.10	60
160.10	22
165.10	60
167.10	53
169.10	13
173.10	30
176.10	20
178.10	23
180.10	3
183.10	20
188.10	31
189.10	1
190.10	19
191.10	6
192.10	16
193.10	13
201.10	6
205.10	46
207.10	73
209.10	33
212.10	32
215.10	7
216.10	3
217.10	5
218.10	20
220.10	38
221.10	6
227.10	22
235.10	21
236.10	19
238.10	20
243.10	8
245.10	20
247.10	18
249.10	73
254.10	8
255.10	14
257.10	55
258.10	24
259.10	5
262.10	35
265.10	61
267.10	1
270.10	18
274.10	6
276.10	28
281.10	23
282.10	25
284.10	8
285.10	10
294.10	4
297.10	48
298.10	2
300.10	19
301.10	12
302.10	26
303.10	31
305.10	26
306.10	25
309.10	42
313.10	8
315.10	22
317.10	15
318.10	19
319.10	1
320.10	4
321.10	3
325.10	67
326.10	16
327.10	16
329.10	7
339.10	15
340.10	28
341.10	12
343.10	45
345.10	27
346.10	31
349.10	7
350.10	5
352.10	41
355.10	13
356.10	17
360.10	4
365.10	24
367.10	21
373.10	1
375.10	10
380.10	36
381.10	41
382.10	1
384.10	39
385.10	4
392.10	4
396.10	19
