m/z	Absolute Intensity
35.00	5
37.00	135
38.15	350
39.10	705
41.10	147
42.10	203
43.10	1558
44.05	120
47.10	17
48.10	39
49.10	88
50.10	1107
51.05	3213
52.45	169
54.10	7
57.10	526
58.10	111
62.10	114
63.10	359
64.10	56
65.10	49
66.10	15
68.10	102
69.15	56
70.10	70
72.10	8
73.10	181
74.10	379
75.10	90
76.10	387
77.10	8733
78.05	829
79.10	110
80.10	4
81.10	23
84.10	166
85.10	12
87.10	3
89.10	128
91.10	136
92.10	107
96.10	17
98.10	17
99.10	101
100.10	9
103.10	68
104.10	17
105.10	9548
106.10	761
107.10	133
113.20	71
114.10	51
115.10	78
116.20	48
117.10	51
119.10	19
120.15	3360
121.20	358
122.20	86
123.10	23
125.20	3
127.10	73
129.20	17
131.10	42
132.10	10
133.10	9
135.20	9
136.20	79
137.10	11
139.20	32
141.20	48
147.20	33
152.20	23
153.10	9
155.20	31
158.20	40
161.20	4
162.20	33
163.20	4
164.20	3
165.20	2
169.20	48
170.10	3
171.20	4
172.20	30
173.20	9
174.20	15
175.20	13
176.20	38
178.20	3
182.20	11
183.20	18
188.10	42
193.20	41
199.10	32
201.20	1
202.20	26
204.10	26
205.20	23
206.10	5
211.20	14
212.20	28
213.20	25
216.20	4
221.10	30
222.20	44
223.20	10
224.20	43
227.10	49
229.10	2
233.20	18
238.10	39
242.20	11
245.20	1
248.20	50
249.20	49
250.20	29
256.20	15
258.20	15
261.10	5
262.10	82
265.20	28
266.20	8
267.20	1
268.20	15
270.20	5
272.20	28
273.20	1
277.20	21
282.20	29
284.20	40
285.20	22
290.20	10
291.10	22
293.20	34
298.10	14
299.20	32
300.10	55
302.20	36
303.20	15
304.20	7
305.10	2
306.10	6
307.10	22
309.10	11
312.20	56
316.10	28
319.10	29
320.10	10
321.20	4
323.20	15
326.10	12
327.10	27
328.10	43
329.10	4
330.20	17
331.10	4
332.20	2
333.10	14
334.20	65
336.20	27
338.10	5
339.20	18
341.10	2
342.10	27
343.10	27
346.20	58
347.20	35
348.20	16
350.10	63
351.10	2
355.20	12
358.20	5
359.20	6
360.20	8
361.10	11
362.10	9
367.20	21
372.10	69
373.20	15
374.20	5
375.20	10
376.20	52
377.20	15
383.10	9
384.10	3
385.20	24
387.10	5
388.10	7
390.20	30
394.10	2
