m/z	Absolute Intensity
35.00	14
39.10	1312
40.10	162
41.10	5680
42.10	2013
43.10	5265
44.10	3347
45.10	1189
46.10	68
48.10	30
50.10	147
51.10	162
53.10	292
54.15	1056
55.15	3788
56.15	4723
57.10	7236
58.10	408
59.10	99
60.10	25
65.10	109
66.10	234
67.10	1432
68.10	2383
69.10	1777
70.15	3155
71.10	1382
72.10	391
73.10	8
75.10	6
77.05	512
78.10	25
80.10	123
81.15	2179
82.15	1976
83.10	909
84.10	118
85.20	277
86.20	206
87.10	10
88.10	16
93.10	288
94.20	86
95.15	1423
96.10	1428
97.10	32
98.15	1752
99.20	232
100.20	116
101.20	30
104.20	31
105.10	414
106.10	104
107.10	15
108.10	69
109.10	304
110.10	66
112.10	6
113.10	114
114.10	404
123.10	18
124.10	123
128.10	7
130.10	4
131.10	7
134.10	24
136.10	113
137.10	5
139.10	52
140.10	61
141.10	19
144.10	6
147.10	26
148.10	14
149.10	38
150.10	13
153.10	12
154.10	44
155.10	42
158.10	9
159.10	73
160.10	16
161.10	32
164.10	8
165.10	17
168.10	28
169.10	14
171.10	10
174.10	68
177.10	38
178.10	26
181.10	17
182.10	80
183.10	36
184.10	20
185.10	23
186.10	46
187.10	9
190.10	60
191.10	14
192.10	13
193.10	5
194.10	9
197.10	31
198.10	24
199.10	38
200.10	14
202.10	10
203.10	9
206.10	23
207.10	41
208.10	81
209.10	28
210.10	30
213.10	51
214.10	32
216.10	24
218.10	28
219.10	14
223.10	9
224.10	18
226.10	7
227.10	9
228.10	61
229.10	19
231.10	30
233.10	7
234.10	15
242.10	20
243.10	33
246.10	7
248.10	13
250.10	11
252.10	33
253.10	3
255.10	7
258.10	22
261.10	14
262.10	9
264.10	24
266.10	21
268.10	3
269.10	18
271.10	15
272.10	28
273.10	43
274.10	17
275.10	29
277.10	26
278.10	14
281.10	35
283.10	31
284.10	31
286.10	25
288.10	22
293.10	48
298.10	84
302.10	29
303.10	26
304.10	33
307.10	2
308.10	26
314.10	7
315.10	17
317.10	12
318.10	32
319.10	17
323.10	23
324.10	38
325.10	41
326.10	2
330.10	48
337.10	10
339.10	14
340.10	47
343.10	24
344.10	39
347.10	19
351.10	13
352.10	10
354.10	39
359.10	9
360.10	58
361.10	35
363.10	7
364.10	25
367.10	28
371.10	10
372.10	39
375.10	50
376.10	35
377.10	4
378.10	37
379.10	59
380.10	2
382.10	28
386.10	47
387.10	48
388.10	2
391.10	44
393.10	15
395.10	4
396.10	53
