m/z	Absolute Intensity
36.00	3
37.10	620
38.10	3253
39.10	20816
40.10	1423
41.10	4779
42.10	436
43.10	491
45.60	3439
50.10	3981
51.10	9367
52.10	2721
53.15	771
54.10	37
59.05	19582
61.10	829
62.05	3876
63.05	12551
64.10	3268
65.10	44512
66.10	2433
67.10	60
69.15	76
74.10	859
75.05	534
76.00	446
77.10	3765
78.10	2256
79.10	2013
80.10	145
81.10	4
83.10	65
85.10	70
86.00	721
87.00	268
88.10	304
89.10	14603
90.15	7277
91.10	306514
92.10	23804
93.05	763
94.10	83
98.10	139
103.10	320
104.20	2
105.10	3258
106.10	1000
107.10	830
108.05	1151
109.10	47
111.10	11
112.20	41
116.10	53
118.15	4257
119.10	6373
120.10	340
121.20	527
122.20	190
123.20	2
127.20	65
128.20	104
129.20	50
133.20	15
135.05	414
136.10	15
140.10	5
147.10	128
148.10	54
149.15	1460
150.15	64181
151.15	6467
152.10	616
154.10	1
156.10	31
160.10	43
162.10	108
164.10	44
166.10	14
167.10	1
172.10	28
173.10	43
175.10	31
180.10	5
181.10	30
182.10	12
183.10	14
185.10	16
188.10	42
189.10	24
190.10	14
191.10	17
192.10	33
193.10	3
196.10	18
199.10	22
205.10	18
206.10	6
208.10	29
212.10	7
215.10	38
216.10	14
220.10	3
224.10	18
227.10	2
228.10	42
230.10	7
231.10	20
232.10	7
233.10	20
234.10	62
236.10	38
237.10	37
238.10	10
243.10	18
244.10	38
251.10	35
252.10	131
254.10	47
257.10	62
258.10	39
260.10	12
261.10	24
262.10	1
264.10	12
265.10	16
266.10	60
274.10	1
280.10	23
287.10	30
291.10	41
295.10	14
296.10	6
298.10	11
304.10	22
306.10	33
310.10	22
311.10	19
313.10	29
314.10	47
319.10	38
321.10	15
322.10	7
323.10	42
324.10	28
325.10	48
326.10	46
330.10	30
331.10	8
332.10	42
333.10	22
334.10	17
335.10	19
336.10	16
337.10	13
338.10	11
341.10	15
342.10	26
343.10	12
344.10	35
346.10	8
347.10	10
350.10	6
353.10	17
356.10	29
359.10	2
365.10	32
366.10	19
368.10	24
370.10	26
371.10	57
373.10	16
374.10	11
375.10	53
376.10	21
377.10	70
379.10	29
382.10	32
383.10	5
385.10	5
386.10	18
388.10	8
394.10	10
395.10	16
397.10	25
398.10	45
