m/z	Absolute Intensity
39.15	727
40.10	219
41.10	3318
42.15	1053
43.10	9909
44.05	386
46.00	88
47.00	54
48.10	40
49.10	37
50.00	67
51.10	83
53.10	215
54.10	88
55.10	1371
56.15	1668
57.15	13327
58.20	497
59.20	241
61.10	58
62.10	16
65.10	70
67.10	213
68.10	115
69.10	408
70.15	1110
71.15	7034
72.10	437
74.10	15
77.10	55
78.10	77
79.10	27
80.10	36
81.10	5
82.10	92
83.25	480
84.10	756
85.15	4025
86.20	141
89.20	28
93.10	196
94.10	10
96.10	32
98.10	539
99.20	864
100.20	78
101.20	17
102.20	1
103.20	24
108.20	10
112.20	472
113.20	378
115.20	5
116.20	1
117.20	28
118.20	73
121.20	111
122.20	74
124.20	21
126.20	176
127.20	301
128.20	26
133.20	37
134.20	36
135.20	29
136.20	36
137.20	39
138.20	41
139.20	25
140.20	107
141.20	48
142.20	74
147.20	35
149.20	10
151.20	46
153.20	22
157.20	73
158.20	16
160.20	41
162.10	34
164.20	1
170.10	396
172.20	4
173.20	34
174.20	5
176.10	7
177.10	22
179.20	38
180.10	1
181.20	26
182.20	57
185.20	4
186.10	10
187.20	55
189.10	30
190.10	17
192.20	49
195.20	41
197.10	34
199.20	18
200.10	1
201.10	22
203.20	11
208.20	26
211.20	2
212.20	12
213.20	22
217.20	48
219.20	1
221.20	11
222.20	56
223.20	57
225.10	41
227.20	20
229.20	5
230.20	24
235.20	10
236.20	20
239.20	8
242.20	7
245.20	14
246.10	6
247.10	17
248.20	8
251.10	22
252.10	43
255.10	4
259.20	1
264.10	11
266.20	24
268.10	67
269.20	31
272.20	9
274.20	24
277.20	35
280.20	23
281.20	34
284.20	46
289.20	9
291.20	3
296.20	17
297.10	12
300.10	19
303.10	4
308.20	9
310.10	24
319.10	29
322.10	38
324.10	34
325.20	25
328.20	4
330.10	5
332.20	5
333.10	13
336.10	52
337.10	16
339.10	12
340.10	27
342.10	3
344.20	6
347.10	14
348.20	13
350.10	47
351.10	20
354.20	4
355.10	8
356.10	2
358.20	54
359.10	60
360.10	34
361.10	33
367.20	10
368.20	6
369.20	48
375.20	38
377.10	12
380.10	20
381.20	35
382.20	20
385.20	8
389.10	22
391.20	55
394.10	3
397.20	11
