m/z	Absolute Intensity
35.00	27
39.10	635
41.15	2891
42.15	1042
43.10	4324
44.10	458
45.10	58
46.10	60
49.10	6
50.10	15
51.10	82
53.10	221
54.10	60
55.15	3093
56.15	1291
57.15	2819
58.10	213
60.10	130
61.10	10
62.10	108
63.10	87
65.10	37
67.10	157
68.10	122
69.15	1575
70.20	672
71.15	1141
72.20	100
73.10	57
75.20	106
76.10	48
77.10	123
79.20	72
80.20	49
81.20	102
82.10	98
83.10	294
84.10	323
85.20	527
87.20	51
91.10	4501
92.10	343
93.10	1111
94.10	90
95.10	32
96.10	103
97.15	510
98.10	56
99.10	57
101.10	51
105.15	542
106.20	51
107.10	214
108.10	32
109.10	3
112.20	122
115.10	25
116.10	2
117.20	12
120.10	8
125.10	33
128.10	22
129.10	62
130.10	9
131.10	71
134.10	9
135.10	134
138.10	38
140.20	30
146.10	18
147.10	32
149.10	18
150.10	37
152.20	16
154.10	68
155.10	31
160.20	45
163.10	24
164.10	1
166.20	45
169.10	19
173.10	49
180.10	10
184.10	2
185.20	48
190.10	18
191.10	40
192.10	6
193.10	60
194.20	1
196.10	11
197.10	17
199.10	22
200.10	13
202.10	23
208.10	61
210.20	26
214.10	61
216.10	52
217.20	21
218.10	24
219.10	21
221.20	34
222.10	26
228.20	19
230.20	5
232.10	8
234.20	12
235.20	5
237.10	10
240.10	32
243.10	66
245.20	3
249.10	12
250.20	21
253.20	5
254.20	23
255.10	39
260.10	59
261.10	2
262.10	37
264.20	7
267.10	11
269.10	27
270.10	2
272.20	8
273.10	3
279.10	51
283.20	65
284.10	106
286.10	10
287.10	11
291.10	21
292.10	31
293.20	22
294.20	37
295.10	27
296.10	51
297.10	37
299.10	34
302.20	12
307.20	21
308.10	37
309.20	23
315.10	15
318.10	19
323.20	13
325.10	7
326.10	10
329.20	13
330.10	41
332.10	12
334.10	33
338.10	37
340.10	25
342.20	52
344.20	28
346.10	28
349.10	4
354.20	30
355.10	52
356.20	3
357.20	27
360.10	39
361.10	39
363.10	3
366.10	73
367.10	18
369.20	10
370.10	6
371.10	36
373.20	4
375.10	12
376.20	10
377.20	53
380.20	3
381.10	41
386.10	11
387.20	42
388.10	32
389.20	6
390.10	34
391.20	30
392.20	22
394.10	10
395.10	10
396.20	28
