m/z	Absolute Intensity
35.00	11
36.00	7
38.00	87
39.10	394
40.05	589
41.10	3175
42.15	825
43.10	7556
44.10	57
46.10	12
47.10	3
49.10	18
50.10	7
51.10	73
52.10	85
53.10	132
54.10	146
55.15	1649
56.10	1805
57.15	11214
58.10	341
59.10	103
60.10	52
62.10	25
64.10	38
65.10	26
66.10	38
67.10	42
68.10	121
69.10	688
70.15	1040
71.15	5425
72.10	168
73.10	944
74.10	69
75.10	8
76.10	28
77.10	118
78.10	11
79.10	91
80.10	96
81.10	55
82.10	149
83.10	559
84.15	787
85.15	3859
86.20	184
87.20	73
88.10	8
89.10	59
90.10	18
91.10	215
92.20	124
93.20	94
94.10	36
95.10	260
96.10	53
98.15	455
99.15	503
102.10	25
103.20	84
104.10	11
105.10	35
106.10	14
107.10	23
108.10	15
111.10	2
112.20	320
113.25	465
116.20	14
117.20	103
118.20	7
121.20	81
123.20	39
125.20	12
126.20	258
127.10	406
129.20	10
130.10	13
131.10	35
132.10	8
133.20	61
134.10	10
136.10	132
137.20	47
138.20	29
140.20	9
141.10	227
142.20	77
143.10	29
144.10	18
146.20	18
147.10	196
148.10	292
149.10	34
150.10	26
153.20	15
154.20	102
155.20	109
156.20	1
161.20	11
162.10	23
166.20	24
167.20	47
170.10	31
171.10	34
178.10	45
179.20	5
180.10	41
181.20	38
183.20	62
184.20	366
188.20	20
189.20	20
190.10	17
191.10	43
192.20	32
202.10	1
206.20	40
208.10	12
210.10	3
211.20	5
214.10	25
216.20	25
217.20	52
220.20	32
221.10	33
222.10	14
225.20	22
226.10	3
227.20	16
229.20	11
230.10	38
232.20	27
237.20	3
241.10	49
242.20	18
243.10	14
244.10	8
250.10	28
252.10	13
255.10	26
259.20	18
260.10	25
261.20	9
263.10	12
264.20	2
266.20	43
267.10	9
268.20	35
269.20	14
270.20	35
271.10	23
272.20	43
273.20	13
274.10	9
276.10	8
277.20	3
280.20	41
285.10	14
287.20	45
288.10	9
290.10	14
291.20	14
293.10	27
295.20	13
299.20	79
300.20	6
301.10	12
305.10	33
307.20	4
308.20	44
310.10	40
311.20	43
312.10	19
313.20	37
315.10	55
316.10	45
320.20	5
325.10	20
326.20	14
330.20	82
334.20	12
335.20	37
338.10	21
339.10	4
341.20	201
342.10	60
344.10	10
345.20	6
347.10	1
349.20	43
350.10	26
351.20	12
354.20	44
357.20	36
358.20	41
359.10	28
363.10	22
367.10	5
368.20	43
369.10	5
370.10	41
371.10	18
376.20	21
380.10	3
381.20	3
388.10	15
390.20	16
391.20	4
398.20	49
399.10	23
