m/z	Absolute Intensity
35.00	2
37.00	83
38.00	14
39.15	420
40.00	328
41.10	2143
42.10	491
43.10	4840
44.00	371
48.00	40
49.00	33
50.00	4
51.00	35
52.00	48
53.00	90
54.00	55
55.10	976
56.10	986
57.15	6988
58.10	395
60.10	108
62.10	55
64.10	56
65.10	133
66.10	57
67.15	331
68.10	234
69.10	378
70.10	1080
71.15	4807
72.20	164
73.10	86
74.20	1
76.10	33
77.10	130
78.20	146
79.10	44
81.10	93
82.10	25
83.10	383
84.15	491
85.20	2296
86.20	71
88.20	39
91.10	1262
92.10	247
94.10	101
95.10	125
96.10	61
97.15	209
98.20	398
99.20	814
100.20	91
102.20	31
103.20	114
104.20	122
105.20	248
107.20	230
108.20	86
109.20	289
110.20	11
112.20	361
113.15	550
115.20	86
116.20	68
117.20	57
118.10	46
119.10	19
120.20	80
121.20	23
123.20	34
124.20	19
126.20	69
127.10	239
129.20	49
130.10	26
131.10	108
132.20	89
133.20	42
134.20	79
135.20	169
136.20	10
137.20	58
138.20	7
140.20	50
141.20	73
143.20	83
144.20	31
145.10	105
146.10	45
147.10	48
149.20	50
150.10	58
151.10	27
152.20	4
154.20	93
155.10	96
156.20	61
157.20	60
161.20	127
162.20	29
164.20	57
165.20	43
167.20	18
168.20	5
169.20	38
173.20	12
174.20	32
175.20	56
178.20	32
179.20	25
180.10	20
182.20	107
186.10	131
188.20	61
189.10	30
191.10	32
193.20	32
195.20	10
196.10	6
199.10	49
200.10	11
202.20	130
203.20	14
204.20	84
208.00	9
210.00	10
211.00	21
212.00	194
213.90	20
214.90	36
216.00	22
218.90	27
220.00	15
225.00	40
225.90	13
226.90	22
229.90	55
230.90	3
231.90	30
232.90	13
238.90	36
244.00	12
250.90	67
252.00	10
253.90	31
255.90	24
258.90	2
260.00	7
261.00	16
265.90	25
267.00	14
268.00	4
269.90	81
271.00	29
272.00	31
276.90	10
280.00	14
283.90	14
284.90	34
287.00	11
288.90	18
290.90	67
292.90	20
297.00	9
298.90	43
300.00	16
302.90	14
303.90	6
304.90	38
308.90	20
309.90	91
311.00	38
312.90	10
316.00	39
321.00	13
321.90	12
323.00	6
323.90	69
324.90	2
326.90	20
329.00	9
329.90	39
330.90	21
332.90	27
334.90	1
337.00	14
338.90	6
342.90	41
348.90	44
350.90	30
354.90	14
355.90	8
357.90	42
358.90	34
362.90	6
363.90	2
364.90	9
365.90	6
367.00	17
368.00	40
368.90	27
370.00	18
374.00	1
379.90	29
381.00	30
382.00	1
384.00	47
388.90	2
390.90	49
393.90	11
394.90	29
396.00	46
397.00	15
