m/z	Absolute Intensity
35.00	5
37.00	13
38.00	12
39.20	341
40.05	17
41.10	696
42.10	166
43.10	3263
44.05	234
46.10	6
47.10	49
49.10	28
50.10	53
51.10	170
53.10	58
54.10	36
55.10	583
56.05	256
57.15	2771
58.10	61
59.10	19
60.10	8
64.10	16
65.10	190
66.10	320
67.20	535
69.10	536
70.15	212
71.15	2151
72.10	166
74.10	75
76.10	29
78.10	69
79.10	129
80.10	155
82.10	121
83.10	213
84.10	186
85.20	1612
86.10	155
89.10	174
90.10	59
91.20	131
92.20	147
93.10	253
94.10	254
95.15	511
96.15	160
97.15	6
98.20	16
99.20	263
100.20	1
101.20	11
103.20	66
104.20	31
105.20	31
106.20	63
108.20	169
109.20	121
110.20	17
113.20	317
115.20	130
116.20	48
120.20	147
121.20	268
122.20	18
123.20	114
127.20	243
128.20	42
130.20	9
131.20	2
132.20	66
133.15	28
135.20	123
136.20	114
137.20	57
138.20	34
140.20	52
141.20	156
143.20	81
144.20	29
145.20	49
146.20	56
147.20	181
149.20	105
150.20	35
151.20	12
152.20	19
153.20	182
155.20	50
157.20	59
158.20	54
160.20	65
161.20	25
163.20	44
165.20	4
168.20	28
169.20	170
171.20	6
172.20	58
173.20	51
174.20	134
181.20	13
182.20	108
183.20	68
184.20	46
185.20	53
187.20	17
188.20	12
189.20	108
190.20	35
192.20	24
193.20	2
194.20	22
196.20	44
197.20	134
198.20	41
199.20	92
201.20	64
202.20	26
204.20	7
205.20	71
209.00	23
212.00	91
213.00	3
215.00	5
218.00	23
219.00	21
221.00	29
231.00	45
232.00	23
233.00	9
234.00	33
235.00	23
237.00	83
239.00	10
241.00	73
244.00	1
246.00	10
247.00	1
251.00	40
252.00	8
253.00	54
254.00	14
255.00	21
256.00	29
258.00	16
260.00	8
263.00	21
265.00	50
267.00	26
268.00	12
269.00	55
270.00	23
271.00	36
275.00	13
277.00	2
278.00	36
279.00	12
280.00	3
282.00	112
285.00	8
287.00	7
290.00	1
291.00	2
296.00	43
299.00	36
300.00	23
302.00	29
304.00	40
307.00	5
309.00	20
310.00	9
315.00	20
319.00	27
320.00	14
322.00	23
323.00	19
327.00	20
328.00	5
331.00	12
332.00	14
343.00	29
344.00	99
346.00	2
347.00	24
349.00	8
350.00	9
351.00	30
353.00	1
354.00	63
355.00	29
356.00	16
357.00	3
358.00	1
359.00	14
360.00	24
361.00	4
362.00	28
364.00	46
368.00	11
369.00	7
371.00	3
375.00	8
379.00	5
380.00	28
386.00	10
390.00	48
391.00	46
