Ret.Time	Absolute Intensity
2.000	2933144
2.002	2567050
2.003	718827
2.005	55942
2.007	7316
2.008	1562
2.010	521
2.012	2431
2.013	6510
2.015	10215
2.017	12197
2.018	13974
2.020	15774
2.022	15926
2.023	14738
2.025	14064
2.027	14159
2.028	14483
2.030	14725
2.032	14430
2.033	13579
2.035	13112
2.037	13835
2.038	15189
2.040	15962
2.042	15949
2.043	16447
2.045	18052
2.047	19630
2.048	20313
2.050	20341
2.052	20020
2.053	19743
2.055	20141
2.057	21060
2.058	21031
2.060	19550
2.062	17456
2.063	15860
2.065	15104
2.067	15024
2.068	15514
2.070	16230
2.072	16327
2.073	15175
2.075	13710
2.077	13826
2.078	15629
2.080	18495
2.082	21507
2.083	23780
2.085	24506
2.087	24542
2.088	25530
2.090	28379
2.092	33273
2.093	40429
2.095	50039
2.097	60836
2.098	69872
2.100	74557
2.102	74471
2.103	70409
2.105	63486
2.107	56858
2.108	54050
2.110	57165
2.112	65347
2.113	75435
2.115	83765
2.117	87984
2.118	85558
2.120	75996
2.122	62891
2.123	51548
2.125	43984
2.127	40573
2.128	41839
2.130	48620
2.132	60696
2.133	74847
2.135	86228
2.137	92217
2.138	93768
2.140	92758
2.142	89420
2.143	83571
2.145	75673
2.147	66818
2.148	58292
2.150	50769
2.152	44185
2.153	38617
2.155	34422
2.157	32113
2.158	31960
2.160	32962
2.162	33227
2.163	33685
2.165	38435
2.167	49558
2.168	65747
2.170	84345
2.172	102340
2.173	115642
2.175	121771
2.177	119344
2.178	107921
2.180	90106
2.182	72040
2.183	57832
2.185	46646
2.187	37215
2.188	30403
2.190	26222
2.192	23064
2.193	20419
2.195	19443
2.197	19941
2.198	20172
2.200	19494
2.202	18937
2.203	19004
2.205	18672
2.207	17628
2.208	17315
2.210	18572
2.212	20107
2.213	20260
2.215	18938
2.217	17439
2.218	17479
2.220	20880
2.222	26878
2.223	32942
2.225	37933
2.227	42727
2.228	46049
2.230	45183
2.232	40413
2.233	35282
2.235	32285
2.237	31389
2.238	33090
2.240	38908
2.242	49447
2.243	62841
2.245	75527
2.247	84919
2.248	89376
2.250	88374
2.252	82317
2.253	73204
2.255	63795
2.257	56748
2.258	53278
2.260	52409
2.262	53260
2.263	56687
2.265	62237
2.267	66763
2.268	66969
2.270	63305
2.272	57680
2.273	51213
2.275	45510
2.277	43218
2.278	45182
2.280	49710
2.282	55177
2.283	60382
2.285	64024
2.287	65582
2.288	65855
2.290	66454
2.292	69910
2.293	80168
2.295	99761
2.297	125190
2.298	149046
2.300	164276
2.302	167558
2.303	159003
2.305	141443
2.307	119193
2.308	96246
2.310	75351
2.312	58914
2.313	49750
2.315	48852
2.317	56250
2.318	74676
2.320	107408
2.322	152254
2.323	200465
2.325	241467
2.327	265510
2.328	266659
2.330	245485
2.332	208069
2.333	162206
2.335	117019
2.337	81259
2.338	58316
2.340	45229
2.342	37643
2.343	33037
2.345	31165
2.347	31327
2.348	31502
2.350	30841
2.352	29955
2.353	28883
2.355	27841
2.357	27076
2.358	26608
2.360	26067
2.362	25909
2.363	26131
2.365	26873
2.367	27972
2.368	28302
2.370	26930
2.372	25254
2.373	24255
2.375	22536
2.377	19937
2.378	18740
2.380	19718
2.382	20753
2.383	21225
2.385	21948
2.387	22726
2.388	22872
2.390	22790
2.392	23500
2.393	24827
2.395	25621
2.397	25455
2.398	25230
2.400	25233
2.402	24845
2.403	23582
2.405	22539
2.407	22228
2.408	22883
2.410	23290
2.412	22691
2.413	21254
2.415	20159
2.417	19762
2.418	19702
2.420	19822
2.422	19759
2.423	19253
2.425	18795
2.427	18777
2.428	19279
2.430	19741
2.432	19249
2.433	17915
2.435	16952
2.437	16711
2.438	16445
2.440	16290
2.442	16484
2.443	16930
2.445	17378
2.447	17571
2.448	16778
2.450	15643
2.452	14924
2.453	14550
2.455	14219
2.457	14219
2.458	14492
2.460	14857
2.462	15049
2.463	15201
2.465	15720
2.467	16952
2.468	18117
2.470	18406
2.472	17805
2.473	17079
2.475	16926
2.477	18021
2.478	19810
2.480	20804
2.482	20549
2.483	20255
2.485	20643
2.487	21387
2.488	22247
2.490	22405
2.492	21678
2.493	21092
2.495	21409
2.497	21746
2.498	21521
2.500	21700
2.502	23489
2.503	26558
2.505	30048
2.507	33619
2.508	37806
2.510	44287
2.512	56265
2.513	75982
2.515	106051
2.517	149515
2.518	205008
2.520	262143
2.522	308609
2.523	335344
2.525	336721
2.527	311275
2.528	265312
2.530	208378
2.532	151205
2.533	102702
2.535	67634
2.537	44950
2.538	31902
2.540	25764
2.542	22971
2.543	21075
2.545	20376
2.547	21802
2.548	23757
2.550	24478
2.552	24249
2.553	23674
2.555	22261
2.557	19900
2.558	17219
2.560	15101
2.562	14361
2.563	15129
2.565	16756
2.567	18233
2.568	18904
2.570	18811
2.572	18225
2.573	17743
2.575	17695
2.577	18282
2.578	20525
2.580	26031
2.582	34099
2.583	41837
2.585	47951
2.587	53069
2.588	56868
2.590	58019
2.592	56838
2.593	53961
2.595	49471
2.597	43989
2.598	38751
2.600	34718
2.602	32269
2.603	30717
2.605	29057
2.607	27352
2.608	26574
2.610	25884
2.612	24191
2.613	22397
2.615	22158
2.617	22761
2.618	22503
2.620	21773
2.622	21498
2.623	21548
2.625	21665
2.627	22192
2.628	23080
2.630	23184
2.632	21187
2.633	18395
2.635	17268
2.637	17915
2.638	18348
2.640	17849
2.642	17114
2.643	16352
2.645	15954
2.647	16231
2.648	16914
2.650	17023
2.652	16997
2.653	17642
2.655	19376
2.657	20566
2.658	20422
2.660	19760
2.662	19849
2.663	20330
2.665	20881
2.667	22240
2.668	23988
2.670	25022
2.672	25226
2.673	25177
2.675	25642
2.677	26602
2.678	27347
2.680	27464
2.682	27291
2.683	26533
2.685	24821
2.687	23246
2.688	22506
2.690	22609
2.692	23379
2.693	24709
2.695	26709
2.697	30723
2.698	37548
2.700	46306
2.702	56677
2.703	68558
2.705	81401
2.707	94429
2.708	106968
2.710	117676
2.712	124740
2.713	126861
2.715	124232
2.717	118214
2.718	110075
2.720	99987
2.722	88267
2.723	77015
2.725	67953
2.727	60687
2.728	55026
2.730	51217
2.732	47873
2.733	44261
2.735	41702
2.737	40352
2.738	39445
2.740	38856
2.742	38228
2.743	37298
2.745	36644
2.747	36276
2.748	35207
2.750	33211
2.752	31179
2.753	30368
2.755	30581
2.757	30893
2.758	31209
2.760	32080
2.762	33430
2.763	34686
2.765	36070
2.767	38149
2.768	40975
2.770	43551
2.772	44213
2.773	43170
2.775	42128
2.777	42314
2.778	43093
2.780	43697
2.782	43550
2.783	42341
2.785	41175
2.787	42077
2.788	46876
2.790	56194
2.792	70230
2.793	88234
2.795	108369
2.797	128070
2.798	144072
2.800	152933
2.802	154161
2.803	148858
2.805	136187
2.807	117606
2.808	99217
2.810	85500
2.812	75738
2.813	68201
2.815	62437
2.817	58314
2.818	56294
2.820	55359
2.822	53579
2.823	51105
2.825	49808
2.827	49924
2.828	51348
2.830	54279
2.832	57822
2.833	59376
2.835	57384
2.837	52421
2.838	46200
2.840	40685
2.842	36927
2.843	34499
2.845	32761
2.847	31631
2.848	30309
2.850	27973
2.852	25986
2.853	26263
2.855	27453
2.857	27621
2.858	27108
2.860	27021
2.862	27227
2.863	27185
2.865	27038
2.867	27230
2.868	27672
2.870	28140
2.872	28453
2.873	28708
2.875	29125
2.877	29815
2.878	30196
2.880	29687
2.882	29080
2.883	29754
2.885	31003
2.887	30961
2.888	29669
2.890	29006
2.892	29602
2.893	30939
2.895	32289
2.897	32537
2.898	30998
2.900	28635
2.902	27013
2.903	26162
2.905	25400
2.907	24782
2.908	24303
2.910	23997
2.912	24980
2.913	28044
2.915	32117
2.917	35723
2.918	39006
2.920	42521
2.922	45242
2.923	45092
2.925	41552
2.927	37186
2.928	34581
2.930	33455
2.932	32217
2.933	31043
2.935	30873
2.937	31756
2.938	32876
2.940	33898
2.942	34466
2.943	34173
2.945	32653
2.947	30603
2.948	29696
2.950	29946
2.952	30063
2.953	30041
2.955	29998
2.957	29664
2.958	29016
2.960	28884
2.962	29163
2.963	29345
2.965	29558
2.967	30973
2.968	37334
2.970	55127
2.972	93653
2.973	164664
2.975	277266
2.977	430849
2.978	611134
2.980	786944
2.982	914668
2.983	960430
2.985	919966
2.987	812423
2.988	666162
2.990	514186
2.992	383014
2.993	282452
2.995	210989
2.997	165503
2.998	139608
3.000	124009
3.002	112911
3.003	102766
3.005	91760
3.007	80676
3.008	71109
3.010	61730
3.012	52075
3.013	44050
3.015	38822
3.017	36217
3.018	35268
3.020	34878
3.022	34592
3.023	34571
3.025	34402
3.027	33783
3.028	33140
3.030	32698
3.032	32295
3.033	31872
3.035	31251
3.037	30658
3.038	30453
3.040	30310
3.042	30092
3.043	30168
3.045	30664
3.047	30825
3.048	29858
3.050	28456
3.052	27777
3.053	28042
3.055	28553
3.057	30215
3.058	33469
3.060	36532
3.062	39578
3.063	47369
3.065	63359
3.067	86955
3.068	116089
3.070	149221
3.072	181723
3.073	205710
3.075	214333
3.077	206764
3.078	186499
3.080	156415
3.082	120724
3.083	87914
3.085	64446
3.087	49649
3.088	40102
3.090	34842
3.092	32773
3.093	32024
3.095	30864
3.097	28924
3.098	26741
3.100	25706
3.102	26119
3.103	27046
3.105	27266
3.107	26316
3.108	25160
3.110	25270
3.112	26141
3.113	26212
3.115	25570
3.117	25302
3.118	25565
3.120	25988
3.122	26453
3.123	26856
3.125	27316
3.127	27622
3.128	27658
3.130	27830
3.132	28441
3.133	28098
3.135	26693
3.137	25391
3.138	25101
3.140	24757
3.142	24216
3.143	24505
3.145	26659
3.147	29255
3.148	31840
3.150	35085
3.152	38312
3.153	39177
3.155	38151
3.157	37115
3.158	36272
3.160	35029
3.162	33621
3.163	32447
3.165	31406
3.167	30880
3.168	31368
3.170	31776
3.172	30415
3.173	28543
3.175	27987
3.177	28271
3.178	28594
3.180	28895
3.182	28009
3.183	25802
3.185	24459
3.187	24779
3.188	24907
3.190	24359
3.192	24347
3.193	25126
3.195	25298
3.197	24435
3.198	23450
3.200	23800
3.202	25458
3.203	27227
3.205	27581
3.207	26429
3.208	25132
3.210	25242
3.212	26352
3.213	26692
3.215	26224
3.217	25992
3.218	26871
3.220	28346
3.222	29541
3.223	29968
3.225	30141
3.227	30756
3.228	31863
3.230	32713
3.232	32670
3.233	32404
3.235	32642
3.237	32377
3.238	30886
3.240	29870
3.242	30412
3.243	31732
3.245	32260
3.247	32083
3.248	31549
3.250	31307
3.252	30993
3.253	30626
3.255	30467
3.257	30794
3.258	31081
3.260	31613
3.262	32833
3.263	34129
3.265	34480
3.267	33369
3.268	31417
3.270	29957
3.272	29636
3.273	29412
3.275	29513
3.277	31085
3.278	33473
3.280	34932
3.282	35517
3.283	36277
3.285	36746
3.287	36731
3.288	36584
3.290	36555
3.292	37043
3.293	38316
3.295	40190
3.297	41702
3.298	42487
3.300	42064
3.302	40487
3.303	39100
3.305	38958
3.307	39037
3.308	37964
3.310	36960
3.312	38098
3.313	40976
3.315	44277
3.317	47851
3.318	51257
3.320	53612
3.322	55292
3.323	57247
3.325	58938
3.327	59037
3.328	57369
3.330	54282
3.332	50217
3.333	46351
3.335	44207
3.337	43470
3.338	42054
3.340	39664
3.342	37005
3.343	34377
3.345	32412
3.347	31409
3.348	30909
3.350	30578
3.352	30728
3.353	30671
3.355	30713
3.357	31783
3.358	33273
3.360	33694
3.362	32872
3.363	31773
3.365	31222
3.367	31461
3.368	32372
3.370	33027
3.372	32585
3.373	31310
3.375	30422
3.377	30041
3.378	29630
3.380	29213
3.382	28677
3.383	28179
3.385	28158
3.387	28820
3.388	29561
3.390	29459
3.392	28599
3.393	27681
3.395	27454
3.397	27663
3.398	27757
3.400	28069
3.402	28706
3.403	29289
3.405	29423
3.407	29432
3.408	30406
3.410	32551
3.412	34662
3.413	35533
3.415	36103
3.417	36826
3.418	36408
3.420	35388
3.422	35845
3.423	38427
3.425	41214
3.427	43977
3.428	48684
3.430	58062
3.432	73207
3.433	94064
3.435	120933
3.437	151429
3.438	178517
3.440	194025
3.442	194701
3.443	182082
3.445	160081
3.447	132884
3.448	103891
3.450	76437
3.452	54209
3.453	39057
3.455	29854
3.457	24444
3.458	21308
3.460	20169
3.462	21010
3.463	22974
3.465	24444
3.467	25130
3.468	25959
3.470	27421
3.472	28437
3.473	27993
3.475	26878
3.477	26623
3.478	27718
3.480	29807
3.482	33069
3.483	38402
3.485	46261
3.487	57063
3.488	71938
3.490	92591
3.492	119714
3.493	151013
3.495	181366
3.497	204670
3.498	216329
3.500	214517
3.502	201579
3.503	183039
3.505	162262
3.507	139821
3.508	117656
3.510	98661
3.512	82574
3.513	67584
3.515	53397
3.517	41066
3.518	31550
3.520	25287
3.522	21460
3.523	18969
3.525	18401
3.527	19385
3.528	19998
3.530	19121
3.532	18207
3.533	18319
3.535	18879
3.537	18967
3.538	18318
3.540	17686
3.542	17046
3.543	16628
3.545	17126
3.547	19147
3.548	21494
3.550	23709
3.552	26064
3.553	29163
3.555	32696
3.557	35473
3.558	35779
3.560	33749
3.562	30865
3.563	28273
3.565	25790
3.567	23080
3.568	20620
3.570	19266
3.572	19650
3.573	21648
3.575	24721
3.577	29622
3.578	38019
3.580	49004
3.582	57793
3.583	62012
3.585	62545
3.587	60198
3.588	54456
3.590	46839
3.592	39520
3.593	33316
3.595	28172
3.597	24204
3.598	21658
3.600	20707
3.602	21139
3.603	22038
3.605	22593
3.607	22295
3.608	20930
3.610	18605
3.612	16758
3.613	16385
3.615	16739
3.617	16669
3.618	16384
3.620	16479
3.622	16759
3.623	16592
3.625	16585
3.627	17452
3.628	18853
3.630	20702
3.632	24944
3.633	34263
3.635	49711
3.637	71200
3.638	97649
3.640	125774
3.642	150148
3.643	166715
3.645	174428
3.647	171979
3.648	159610
3.650	143298
3.652	131032
3.653	126213
3.655	129040
3.657	139239
3.658	153338
3.660	165056
3.662	169486
3.663	165824
3.665	154134
3.667	134824
3.668	111090
3.670	87902
3.672	68766
3.673	54452
3.675	44479
3.677	37296
3.678	31718
3.680	27640
3.682	25559
3.683	25198
3.685	25200
3.687	24736
3.688	24101
3.690	22595
3.692	20076
3.693	18416
3.695	18778
3.697	19838
3.698	20061
3.700	19546
3.702	18671
3.703	17907
3.705	17169
3.707	16400
3.708	16307
3.710	17824
3.712	20490
3.713	23124
3.715	25912
3.717	29279
3.718	32447
3.720	34306
3.722	34429
3.723	33433
3.725	32258
3.727	31298
3.728	29928
3.730	27994
3.732	25904
3.733	24024
3.735	22614
3.737	21779
3.738	20829
3.740	19649
3.742	19074
3.743	19644
3.745	20016
3.747	19558
3.748	18797
3.750	18305
3.752	18299
3.753	18869
3.755	19318
3.757	18972
3.758	18644
3.760	18571
3.762	18042
3.763	17132
3.765	16930
3.767	16926
3.768	16681
3.770	17362
3.772	19663
3.773	21799
3.775	22044
3.777	20570
3.778	18840
3.780	18808
3.782	20104
3.783	20741
3.785	20517
3.787	20796
3.788	20904
3.790	20527
3.792	20633
3.793	22157
3.795	23243
3.797	22391
3.798	19949
3.800	18868
3.802	20260
3.803	22833
3.805	24682
3.807	24079
3.808	21337
3.810	19221
3.812	19598
3.813	20504
3.815	20432
3.817	19725
3.818	19494
3.820	19458
3.822	19261
3.823	18784
3.825	18495
3.827	18513
3.828	18575
3.830	18606
3.832	18418
3.833	18161
3.835	18219
3.837	18557
3.838	19101
3.840	19608
3.842	19177
3.843	17658
3.845	16774
3.847	17077
3.848	17809
3.850	19018
3.852	21650
3.853	25230
3.855	29283
3.857	32795
3.858	34430
3.860	33343
3.862	31093
3.863	29191
3.865	27380
3.867	24346
3.868	21184
3.870	19791
3.872	19785
3.873	19773
3.875	19844
3.877	20459
3.878	21091
3.880	21450
3.882	21708
3.883	22124
3.885	22806
3.887	22969
3.888	22520
3.890	21992
3.892	21715
3.893	21199
3.895	20349
3.897	19124
3.898	17976
3.900	17825
3.902	18387
3.903	18787
3.905	18354
3.907	17269
3.908	16696
3.910	17337
3.912	18350
3.913	19306
3.915	20974
3.917	24889
3.918	32956
3.920	47522
3.922	68356
3.923	92846
3.925	118379
3.927	141477
3.928	158658
3.930	166453
3.932	163115
3.933	149557
3.935	130690
3.937	111993
3.938	96888
3.940	87872
3.942	87080
3.943	97091
3.945	122204
3.947	165794
3.948	226983
3.950	300714
3.952	377266
3.953	444091
3.955	489733
3.957	503925
3.958	480305
3.960	423372
3.962	347482
3.963	266642
3.965	190918
3.967	129109
3.968	85888
3.970	59089
3.972	42636
3.973	32119
3.975	26448
3.977	25316
3.978	27259
3.980	29157
3.982	28791
3.983	27087
3.985	25669
3.987	24107
3.988	21973
3.990	20990
3.992	22339
3.993	24816
3.995	26948
3.997	28931
3.998	32259
4.000	37054
4.002	40567
4.003	41303
4.005	40569
4.007	39229
4.008	36184
4.010	32594
4.012	30737
4.013	30958
4.015	31186
4.017	29751
4.018	26713
4.020	23430
4.022	21645
4.023	21868
4.025	23527
4.027	25752
4.028	28271
4.030	30701
4.032	32746
4.033	34366
4.035	35145
4.037	34391
4.038	32499
4.040	30841
4.042	29426
4.043	26943
4.045	23788
4.047	22280
4.048	23070
4.050	24932
4.052	27990
4.053	32714
4.055	37668
4.057	40703
4.058	41793
4.060	41412
4.062	40285
4.063	38953
4.065	38373
4.067	38260
4.068	38123
4.070	37901
4.072	38667
4.073	39644
4.075	39860
4.077	39363
4.078	38699
4.080	36775
4.082	33864
4.083	31165
4.085	29255
4.087	27943
4.088	27045
4.090	26736
4.092	27381
4.093	28968
4.095	30944
4.097	34700
4.098	42154
4.100	53574
4.102	67975
4.103	85192
4.105	104763
4.107	124079
4.108	139626
4.110	150322
4.112	156481
4.113	157617
4.115	152051
4.117	139740
4.118	123039
4.120	105860
4.122	90991
4.123	77935
4.125	66631
4.127	58512
4.128	53380
4.130	49047
4.132	45382
4.133	44869
4.135	48957
4.137	58433
4.138	73436
4.140	92034
4.142	111927
4.143	131988
4.145	150306
4.147	161215
4.148	159739
4.150	145682
4.152	123941
4.153	100397
4.155	78823
4.157	60413
4.158	46163
4.160	36853
4.162	31417
4.163	27855
4.165	24995
4.167	22905
4.168	21548
4.170	21380
4.172	22459
4.173	24310
4.175	25686
4.177	26112
4.178	26097
4.180	26754
4.182	28320
4.183	29478
4.185	28849
4.187	27333
4.188	26713
4.190	27539
4.192	29985
4.193	34065
4.195	39038
4.197	43663
4.198	46612
4.200	47793
4.202	48065
4.203	47843
4.205	46615
4.207	45242
4.208	43727
4.210	41169
4.212	37846
4.213	35314
4.215	33755
4.217	31878
4.218	29463
4.220	27818
4.222	27855
4.223	28779
4.225	29658
4.227	30493
4.228	31542
4.230	33058
4.232	35314
4.233	38258
4.235	41954
4.237	45391
4.238	47647
4.240	48266
4.242	47812
4.243	47452
4.245	48862
4.247	53924
4.248	65503
4.250	84862
4.252	110976
4.253	142123
4.255	176639
4.257	209559
4.258	232940
4.260	240950
4.262	233278
4.263	213372
4.265	184400
4.267	150427
4.268	117557
4.270	90133
4.272	68399
4.273	51756
4.275	40081
4.277	33088
4.278	29358
4.280	26949
4.282	25091
4.283	24853
4.285	26815
4.287	29616
4.288	31922
4.290	33664
4.292	35666
4.293	38193
4.295	40371
4.297	41294
4.298	40626
4.300	38248
4.302	35554
4.303	34010
4.305	33391
4.307	33413
4.308	35238
4.310	40630
4.312	49276
4.313	58974
4.315	68124
4.317	77697
4.318	87731
4.320	96018
4.322	100663
4.323	101235
4.325	98419
4.327	94264
4.328	89763
4.330	84096
4.332	77510
4.333	71080
4.335	65005
4.337	58765
4.338	52089
4.340	44374
4.342	36230
4.343	30385
4.345	28401
4.347	28347
4.348	27399
4.350	26073
4.352	25342
4.353	24858
4.355	23412
4.357	22094
4.358	21726
4.360	22149
4.362	22281
4.363	22948
4.365	24317
4.367	24821
4.368	23671
4.370	22362
4.372	22030
4.373	22208
4.375	22116
4.377	20471
4.378	17701
4.380	16207
4.382	16801
4.383	17842
4.385	18352
4.387	18791
4.388	19440
4.390	19510
4.392	18946
4.393	18796
4.395	20266
4.397	23022
4.398	25392
4.400	26109
4.402	24413
4.403	22188
4.405	21975
4.407	23606
4.408	24336
4.410	23202
4.412	21996
4.413	21844
4.415	22170
4.417	22201
4.418	21359
4.420	20212
4.422	20439
4.423	22292
4.425	23960
4.427	24400
4.428	24575
4.430	24922
4.432	25478
4.433	25990
4.435	26705
4.437	28078
4.438	32103
4.440	41397
4.442	57177
4.443	79188
4.445	107317
4.447	140070
4.448	172238
4.450	198545
4.452	215084
4.453	216842
4.455	202327
4.457	177093
4.458	147619
4.460	116635
4.462	87379
4.463	63962
4.465	47719
4.467	37263
4.468	31038
4.470	27404
4.472	25160
4.473	23467
4.475	22192
4.477	21552
4.478	21187
4.480	20996
4.482	22023
4.483	24943
4.485	30394
4.487	39824
4.488	54702
4.490	75517
4.492	103038
4.493	135780
4.495	167352
4.497	190864
4.498	203775
4.500	205555
4.502	195391
4.503	174019
4.505	146374
4.507	118186
4.508	93784
4.510	74575
4.512	60233
4.513	50397
4.515	44739
4.517	42471
4.518	41938
4.520	42283
4.522	43637
4.523	46658
4.525	49809
4.527	50645
4.528	48638
4.530	45912
4.532	43876
4.533	41280
4.535	37617
4.537	34394
4.538	33228
4.540	33119
4.542	32649
4.543	31866
4.545	31214
4.547	31157
4.548	31596
4.550	31937
4.552	31078
4.553	29719
4.555	30135
4.557	33336
4.558	39124
4.560	48593
4.562	63123
4.563	82611
4.565	106885
4.567	134790
4.568	162344
4.570	182389
4.572	188718
4.573	179818
4.575	160142
4.577	136579
4.578	113878
4.580	94399
4.582	79337
4.583	69132
4.585	63069
4.587	59735
4.588	58361
4.590	58145
4.592	57524
4.593	55720
4.595	53725
4.597	52868
4.598	52186
4.600	50574
4.602	48295
4.603	46006
4.605	43929
4.607	42211
4.608	41263
4.610	40998
4.612	41009
4.613	40063
4.615	37166
4.617	34008
4.618	33370
4.620	35030
4.622	35605
4.623	34120
4.625	32333
4.627	31598
4.628	31814
4.630	32123
4.632	32405
4.633	33149
4.635	34507
4.637	34742
4.638	33175
4.640	31816
4.642	31491
4.643	31228
4.645	30508
4.647	30276
4.648	30422
4.650	30407
4.652	29965
4.653	28657
4.655	26429
4.657	24245
4.658	23398
4.660	24099
4.662	24794
4.663	24365
4.665	24049
4.667	23903
4.668	23170
4.670	22407
4.672	23331
4.673	24688
4.675	25737
4.677	27147
4.678	29392
4.680	32149
4.682	35195
4.683	38103
4.685	40503
4.687	42391
4.688	43953
4.690	45255
4.692	46248
4.693	46944
4.695	46929
4.697	46160
4.698	44624
4.700	42788
4.702	40992
4.703	40052
4.705	39961
4.707	39285
4.708	37220
4.710	35176
4.712	34159
4.713	32862
4.715	30281
4.717	27189
4.718	25286
4.720	25236
4.722	26799
4.723	28810
4.725	30588
4.727	31856
4.728	32928
4.730	33575
4.732	33142
4.733	31263
4.735	29462
4.737	28966
4.738	29686
4.740	30679
4.742	31591
4.743	32179
4.745	32362
4.747	32838
4.748	34005
4.750	34294
4.752	33072
4.753	31594
4.755	30136
4.757	28027
4.758	26754
4.760	27110
4.762	28510
4.763	29557
4.765	30895
4.767	32726
4.768	34848
4.770	36354
4.772	37194
4.773	38244
4.775	39249
4.777	39553
4.778	39367
4.780	39265
4.782	38575
4.783	36512
4.785	34125
4.787	33355
4.788	34212
4.790	36054
4.792	39253
4.793	44629
4.795	50993
4.797	56594
4.798	62549
4.800	70095
4.802	77708
4.803	81443
4.805	79589
4.807	74059
4.808	68354
4.810	63577
4.812	58606
4.813	53080
4.815	47892
4.817	43924
4.818	40857
4.820	37571
4.822	34315
4.823	32825
4.825	33468
4.827	34558
4.828	34276
4.830	32589
4.832	31447
4.833	31928
4.835	32739
4.837	32766
4.838	32756
4.840	33079
4.842	33267
4.843	32695
4.845	31140
4.847	29502
4.848	28842
4.850	28537
4.852	28022
4.853	27799
4.855	28130
4.857	27822
4.858	26861
4.860	26046
4.862	25926
4.863	26138
4.865	26868
4.867	27582
4.868	27684
4.870	26893
4.872	25492
4.873	24660
4.875	24950
4.877	25656
4.878	25610
4.880	25284
4.882	25516
4.883	26140
4.885	26726
4.887	26956
4.888	27188
4.890	28590
4.892	31244
4.893	33469
4.895	34291
4.897	34078
4.898	33354
4.900	32170
4.902	31693
4.903	33098
4.905	35887
4.907	39373
4.908	43565
4.910	48964
4.912	55419
4.913	63974
4.915	74539
4.917	83987
4.918	89822
4.920	92861
4.922	93184
4.923	90026
4.925	82940
4.927	74657
4.928	68002
4.930	63446
4.932	58333
4.933	51475
4.935	44711
4.937	39740
4.938	37038
4.940	36512
4.942	37308
4.943	38130
4.945	37767
4.947	36425
4.948	35204
4.950	34813
4.952	34990
4.953	36288
4.955	40001
4.957	46406
4.958	54590
4.960	63082
4.962	70521
4.963	75679
4.965	78335
4.967	78778
4.968	78268
4.970	76844
4.972	74348
4.973	72886
4.975	75673
4.977	82157
4.978	89538
4.980	96755
4.982	104532
4.983	111969
4.985	116790
4.987	116550
4.988	110748
4.990	101233
4.992	89855
4.993	77776
4.995	66073
4.997	56111
4.998	49109
5.000	45176
5.002	43789
5.003	42347
5.005	39763
5.007	36901
5.008	35310
5.010	35407
5.012	35452
5.013	34385
5.015	33055
5.017	33020
5.018	32989
5.020	31443
5.022	29297
5.023	28215
5.025	28029
5.027	27562
5.028	26196
5.030	24927
5.032	24196
5.033	24102
5.035	24563
5.037	25181
5.038	25371
5.040	26065
5.042	27755
5.043	28674
5.045	28218
5.047	27432
5.048	27806
5.050	29579
5.052	32374
5.053	34760
5.055	36002
5.057	36413
5.058	36060
5.060	35190
5.062	34067
5.063	32458
5.065	30611
5.067	29989
5.068	31098
5.070	32439
5.072	32615
5.073	32453
5.075	33431
5.077	35306
5.078	36953
5.080	38411
5.082	41494
5.083	45528
5.085	48695
5.087	50589
5.088	52947
5.090	55140
5.092	54908
5.093	51181
5.095	46144
5.097	42512
5.098	40850
5.100	39122
5.102	36141
5.103	32734
5.105	30860
5.107	30893
5.108	31366
5.110	30881
5.112	30441
5.113	31317
5.115	32859
5.117	33666
5.118	33974
5.120	34539
5.122	35070
5.123	35362
5.125	36581
5.127	40463
5.128	47347
5.130	59152
5.132	78988
5.133	110860
5.135	156622
5.137	214743
5.138	278951
5.140	339145
5.142	381999
5.143	397184
5.145	384579
5.147	351948
5.148	305236
5.150	249410
5.152	193179
5.153	146350
5.155	112372
5.157	89434
5.158	74060
5.160	64609
5.162	60486
5.163	60057
5.165	59904
5.167	58075
5.168	55846
5.170	53784
5.172	51608
5.173	49909
5.175	49614
5.177	49306
5.178	47912
5.180	46469
5.182	45148
5.183	43057
5.185	40116
5.187	37975
5.188	37468
5.190	37846
5.192	37852
5.193	37217
5.195	36126
5.197	34505
5.198	32960
5.200	32191
5.202	32457
5.203	33467
5.205	34574
5.207	35294
5.208	35989
5.210	36790
5.212	36961
5.213	35748
5.215	33886
5.217	32928
5.218	32769
5.220	31585
5.222	29353
5.223	26996
5.225	24755
5.227	23093
5.228	22631
5.230	23255
5.232	24116
5.233	24522
5.235	24101
5.237	24330
5.238	25932
5.240	28056
5.242	30444
5.243	33590
5.245	36904
5.247	38419
5.248	38261
5.250	36884
5.252	35304
5.253	34212
5.255	34091
5.257	33886
5.258	32998
5.260	31977
5.262	30817
5.263	29537
5.265	28473
5.267	27851
5.268	27020
5.270	26117
5.272	25919
5.273	26875
5.275	28307
5.277	29110
5.278	29083
5.280	27953
5.282	26086
5.283	24033
5.285	23015
5.287	22630
5.288	21817
5.290	20408
5.292	19189
5.293	18964
5.295	18953
5.297	18447
5.298	17658
5.300	17491
5.302	17679
5.303	18331
5.305	20209
5.307	22771
5.308	24298
5.310	24481
5.312	23958
5.313	23624
5.315	24485
5.317	25939
5.318	26718
5.320	27137
5.322	28875
5.323	31473
5.325	33626
5.327	34015
5.328	32842
5.330	30873
5.332	28844
5.333	26366
5.335	24026
5.337	22910
5.338	23228
5.340	24123
5.342	24418
5.343	24145
5.345	24448
5.347	25653
5.348	26406
5.350	26528
5.352	27196
5.353	28683
5.355	29867
5.357	30305
5.358	30604
5.360	31591
5.362	33500
5.363	35905
5.365	38572
5.367	42672
5.368	49968
5.370	60331
5.372	71909
5.373	84230
5.375	97902
5.377	112714
5.378	126449
5.380	136925
5.382	142987
5.383	145550
5.385	145718
5.387	143805
5.388	139491
5.390	133476
5.392	127796
5.393	125070
5.395	124561
5.397	122753
5.398	119697
5.400	118044
5.402	117029
5.403	113586
5.405	108374
5.407	103629
5.408	99180
5.410	94427
5.412	89506
5.413	84785
5.415	80716
5.417	77604
5.418	74765
5.420	72394
5.422	71381
5.423	71232
5.425	70511
5.427	70238
5.428	70634
5.430	70444
5.432	69517
5.433	68837
5.435	68138
5.437	66476
5.438	64501
5.440	63022
5.442	61314
5.443	58657
5.445	56358
5.447	55539
5.448	55343
5.450	55465
5.452	56592
5.453	57344
5.455	56207
5.457	54635
5.458	54164
5.460	54184
5.462	54950
5.463	58471
5.465	65426
5.467	76793
5.468	97498
5.470	134085
5.472	190947
5.473	270204
5.475	372646
5.477	492436
5.478	615035
5.480	726511
5.482	818099
5.483	883289
5.485	913105
5.487	902566
5.488	862054
5.490	808919
5.492	750453
5.493	685499
5.495	619197
5.497	559221
5.498	506414
5.500	459696
5.502	418362
5.503	379912
5.505	342744
5.507	308832
5.508	280066
5.510	254796
5.512	231456
5.513	211079
5.515	194840
5.517	181713
5.518	169354
5.520	157260
5.522	146430
5.523	137607
5.525	130415
5.527	124871
5.528	120061
5.530	114883
5.532	109542
5.533	104330
5.535	99375
5.537	95653
5.538	93981
5.540	93146
5.542	91330
5.543	88459
5.545	86375
5.547	86562
5.548	88874
5.550	91619
5.552	95353
5.553	103420
5.555	117832
5.557	135299
5.558	152227
5.560	167777
5.562	180836
5.563	188338
5.565	188106
5.567	181030
5.568	169274
5.570	154581
5.572	138334
5.573	122389
5.575	108926
5.577	99568
5.578	94073
5.580	89506
5.582	83979
5.583	79287
5.585	77001
5.587	75923
5.588	74459
5.590	72211
5.592	69174
5.593	65675
5.595	62249
5.597	59812
5.598	58551
5.600	58126
5.602	58173
5.603	58588
5.605	59157
5.607	60630
5.608	64779
5.610	72056
5.612	81618
5.613	92531
5.615	103875
5.617	114420
5.618	121992
5.620	125172
5.622	123885
5.623	118964
5.625	111160
5.627	100852
5.628	89780
5.630	80309
5.632	73665
5.633	68331
5.635	63450
5.637	59526
5.638	56527
5.640	53907
5.642	52264
5.643	51644
5.645	50658
5.647	49104
5.648	48799
5.650	50638
5.652	53640
5.653	56905
5.655	59400
5.657	59933
5.658	59433
5.660	59857
5.662	60686
5.663	60642
5.665	59985
5.667	59177
5.668	58303
5.670	57689
5.672	56673
5.673	54493
5.675	51674
5.677	49634
5.678	49046
5.680	49683
5.682	49756
5.683	48751
5.685	47824
5.687	47544
5.688	47275
5.690	47455
5.692	49382
5.693	52349
5.695	54026
5.697	53884
5.698	53336
5.700	54642
5.702	58859
5.703	65183
5.705	71031
5.707	74372
5.708	75460
5.710	75234
5.712	74224
5.713	71153
5.715	66558
5.717	62121
5.718	58593
5.720	55015
5.722	51033
5.723	47436
5.725	44546
5.727	42892
5.728	42282
5.730	42187
5.732	41723
5.733	41004
5.735	40618
5.737	40341
5.738	39293
5.740	37664
5.742	36068
5.743	35024
5.745	34943
5.747	35939
5.748	37011
5.750	37121
5.752	35956
5.753	34003
5.755	32476
5.757	32179
5.758	32291
5.760	32251
5.762	32291
5.763	31918
5.765	31258
5.767	31641
5.768	32949
5.770	33408
5.772	32553
5.773	31301
5.775	30175
5.777	30499
5.778	31807
5.780	32330
5.782	31283
5.783	31026
5.785	32368
5.787	34861
5.788	37343
5.790	38843
5.792	39148
5.793	39522
5.795	39710
5.797	38735
5.798	37662
5.800	37477
5.802	37272
5.803	36142
5.805	34648
5.807	33180
5.808	32045
5.810	31371
5.812	31206
5.813	31432
5.815	31558
5.817	30893
5.818	29677
5.820	28998
5.822	29890
5.823	31486
5.825	32319
5.827	32281
5.828	32136
5.830	32106
5.832	32264
5.833	33008
5.835	33721
5.837	33308
5.838	32498
5.840	32622
5.842	33028
5.843	32176
5.845	30606
5.847	29534
5.848	29139
5.850	29653
5.852	31029
5.853	32102
5.855	32694
5.857	33644
5.858	34186
5.860	32891
5.862	30714
5.863	29413
5.865	28816
5.867	28082
5.868	26999
5.870	25963
5.872	25358
5.873	25877
5.875	26983
5.877	27253
5.878	26694
5.880	26372
5.882	26232
5.883	25317
5.885	24881
5.887	25737
5.888	26812
5.890	27048
5.892	27185
5.893	27230
5.895	26273
5.897	24269
5.898	22999
5.900	23399
5.902	24204
5.903	24275
5.905	24262
5.907	25286
5.908	26731
5.910	27468
5.912	27061
5.913	26100
5.915	25135
5.917	24576
5.918	24700
5.920	25498
5.922	26662
5.923	27763
5.925	27869
5.927	26605
5.928	25414
5.930	25449
5.932	26069
5.933	26092
5.935	25557
5.937	24951
5.938	24517
5.940	24415
5.942	23680
5.943	22594
5.945	22341
5.947	23858
5.948	25758
5.950	27466
5.952	28942
5.953	30525
5.955	32874
5.957	35794
5.958	37765
5.960	38092
5.962	37769
5.963	37101
5.965	36102
5.967	35261
5.968	34270
5.970	33020
5.972	32408
5.973	32650
5.975	32344
5.977	31427
5.978	30772
5.980	30209
5.982	28861
5.983	27502
5.985	26745
5.987	26636
5.988	26401
5.990	26455
5.992	26696
5.993	26693
5.995	25849
5.997	25112
5.998	25598
6.000	26911
6.002	28253
6.003	29033
6.005	28893
6.007	27879
6.008	27082
6.010	26919
6.012	26890
6.013	26252
6.015	25677
6.017	25429
6.018	26057
6.020	26405
6.022	26513
6.023	26186
6.025	26405
6.027	26919
6.028	27767
6.030	28763
6.032	30338
6.033	31998
6.035	32878
6.037	32598
6.038	31710
6.040	30820
6.042	30347
6.043	30058
6.045	29182
6.047	27501
6.048	26627
6.050	26878
6.052	27476
6.053	27210
6.055	26716
6.057	26333
6.058	25749
6.060	24761
6.062	24159
6.063	24539
6.065	25550
6.067	27714
6.068	31773
6.070	37819
6.072	44888
6.073	51800
6.075	57647
6.077	62850
6.078	67067
6.080	68472
6.082	66316
6.083	62310
6.085	58537
6.087	55692
6.088	53360
6.090	50895
6.092	48597
6.093	46693
6.095	44943
6.097	43183
6.098	42157
6.100	41856
6.102	41151
6.103	39502
6.105	37370
6.107	35449
6.108	34032
6.110	32740
6.112	31494
6.113	30259
6.115	29568
6.117	29212
6.118	28912
6.120	28712
6.122	28515
6.123	28779
6.125	30122
6.127	33017
6.128	36647
6.130	39627
6.132	41035
6.133	40565
6.135	39052
6.137	37821
6.138	36950
6.140	35522
6.142	33174
6.143	30882
6.145	29292
6.147	28449
6.148	27601
6.150	26360
6.152	25253
6.153	25062
6.155	25536
6.157	25983
6.158	26006
6.160	25653
6.162	25268
6.163	25202
6.165	25154
6.167	25331
6.168	26312
6.170	27674
6.172	28346
6.173	28264
6.175	27898
6.177	27437
6.178	26996
6.180	26564
6.182	25611
6.183	24845
6.185	25358
6.187	26844
6.188	27666
6.190	26868
6.192	25399
6.193	24258
6.195	23687
6.197	22933
6.198	21851
6.200	20926
6.202	20515
6.203	20171
6.205	19572
6.207	19196
6.208	19578
6.210	20428
6.212	21827
6.213	23572
6.215	25127
6.217	25646
6.218	25328
6.220	25320
6.222	26723
6.223	28762
6.225	30012
6.227	30440
6.228	30239
6.230	29331
6.232	28759
6.233	29236
6.235	29784
6.237	29695
6.238	29509
6.240	29996
6.242	31128
6.243	33091
6.245	36757
6.247	42260
6.248	47425
6.250	51133
6.252	54883
6.253	59162
6.255	61018
6.257	60031
6.258	58431
6.260	58763
6.262	60855
6.263	64467
6.265	68815
6.267	74152
6.268	80934
6.270	88468
6.272	93940
6.273	96031
6.275	94546
6.277	88863
6.278	79967
6.280	70398
6.282	61466
6.283	52757
6.285	45900
6.287	41892
6.288	39576
6.290	37440
6.292	36568
6.293	37231
6.295	37206
6.297	35623
6.298	34230
6.300	34482
6.302	35581
6.303	36279
6.305	35307
6.307	33156
6.308	31016
6.310	29050
6.312	27686
6.313	27824
6.315	28508
6.317	28276
6.318	27282
6.320	27101
6.322	27711
6.323	28003
6.325	27259
6.327	26620
6.328	26539
6.330	26079
6.332	24894
6.333	24066
6.335	24441
6.337	25877
6.338	27580
6.340	28476
6.342	27637
6.343	26040
6.345	25315
6.347	25524
6.348	25018
6.350	23692
6.352	23028
6.353	23631
6.355	24809
6.357	25883
6.358	26211
6.360	25627
6.362	25350
6.363	26329
6.365	27824
6.367	28653
6.368	28552
6.370	27814
6.372	26607
6.373	25427
6.375	24651
6.377	24917
6.378	26064
6.380	26997
6.382	26865
6.383	27059
6.385	28329
6.387	29000
6.388	28412
6.390	28005
6.392	28425
6.393	28285
6.395	27520
6.397	26804
6.398	26851
6.400	26647
6.402	25936
6.403	25456
6.405	26158
6.407	27521
6.408	27816
6.410	26932
6.412	25954
6.413	25442
6.415	24734
6.417	24170
6.418	24379
6.420	24951
6.422	25672
6.423	26996
6.425	29264
6.427	32112
6.428	34226
6.430	34648
6.432	33977
6.433	33418
6.435	33328
6.437	32972
6.438	32059
6.440	31419
6.442	31938
6.443	32991
6.445	33346
6.447	32954
6.448	32403
6.450	31959
6.452	31057
6.453	30083
6.455	29083
6.457	28277
6.458	27751
6.460	27620
6.462	27395
6.463	27223
6.465	27883
6.467	28590
6.468	28266
6.470	26605
6.472	25329
6.473	25223
6.475	25700
6.477	25683
6.478	25351
6.480	26027
6.482	27869
6.483	30209
6.485	31497
6.487	32102
6.488	32874
6.490	34307
6.492	36687
6.493	39510
6.495	41269
6.497	40791
6.498	39522
6.500	39366
6.502	40153
6.503	40015
6.505	38118
6.507	35307
6.508	32898
6.510	31659
6.512	31490
6.513	30860
6.515	29246
6.517	27377
6.518	26007
6.520	25091
6.522	24993
6.523	25896
6.525	26789
6.527	26977
6.528	26889
6.530	27167
6.532	27565
6.533	27645
6.535	27604
6.537	27878
6.538	27987
6.540	28255
6.542	29019
6.543	30233
6.545	31042
6.547	31462
6.548	31156
6.550	29599
6.552	27743
6.553	26634
6.555	26419
6.557	26562
6.558	27191
6.560	27981
6.562	28260
6.563	27453
6.565	25900
6.567	24468
6.568	24059
6.570	24406
6.572	25162
6.573	26491
6.575	27974
6.577	28519
6.578	28703
6.580	30183
6.582	32769
6.583	34860
6.585	35253
6.587	34146
6.588	32664
6.590	31881
6.592	31667
6.593	31980
6.595	32410
6.597	33260
6.598	34617
6.600	35960
6.602	36109
6.603	35409
6.605	34343
6.607	32986
6.608	31271
6.610	30005
6.612	29733
6.613	29939
6.615	29638
6.617	29748
6.618	31153
6.620	33042
6.622	34842
6.623	36461
6.625	37401
6.627	37746
6.628	38400
6.630	39212
6.632	38805
6.633	36861
6.635	34298
6.637	32964
6.638	33306
6.640	33449
6.642	32125
6.643	30253
6.645	29177
6.647	29165
6.648	29926
6.650	30995
6.652	31545
6.653	31407
6.655	31097
6.657	31047
6.658	31858
6.660	33177
6.662	34800
6.663	35914
6.665	35592
6.667	34508
6.668	34171
6.670	34670
6.672	34171
6.673	32382
6.675	30053
6.677	27998
6.678	26971
6.680	26846
6.682	27190
6.683	27499
6.685	27752
6.687	27781
6.688	28037
6.690	28869
6.692	29798
6.693	30372
6.695	30676
6.697	31005
6.698	31890
6.700	34101
6.702	37722
6.703	41829
6.705	45804
6.707	49695
6.708	53381
6.710	56423
6.712	59007
6.713	61386
6.715	62976
6.717	62581
6.718	60459
6.720	57494
6.722	53505
6.723	48105
6.725	44163
6.727	43155
6.728	43639
6.730	43948
6.732	44673
6.733	45223
6.735	44846
6.737	43455
6.738	40938
6.740	37681
6.742	35490
6.743	35530
6.745	36612
6.747	37177
6.748	37571
6.750	39246
6.752	41749
6.753	43566
6.755	44825
6.757	45949
6.758	45984
6.760	44714
6.762	43565
6.763	43086
6.765	43058
6.767	43673
6.768	45063
6.770	45612
6.772	44926
6.773	43792
6.775	42651
6.777	41489
6.778	40788
6.780	40413
6.782	39563
6.783	38204
6.785	37462
6.787	37166
6.788	35443
6.790	32244
6.792	29803
6.793	29066
6.795	28754
6.797	29245
6.798	30565
6.800	31277
6.802	30887
6.803	30581
6.805	31150
6.807	32777
6.808	35771
6.810	40809
6.812	48818
6.813	59315
6.815	70203
6.817	78991
6.818	84965
6.820	87535
6.822	85451
6.823	78236
6.825	68523
6.827	60165
6.828	54661
6.830	51155
6.832	48574
6.833	46252
6.835	44138
6.837	42296
6.838	41135
6.840	40548
6.842	39418
6.843	37690
6.845	37109
6.847	39015
6.848	42301
6.850	46749
6.852	54547
6.853	67775
6.855	84698
6.857	102635
6.858	120250
6.860	134096
6.862	139978
6.863	138005
6.865	130996
6.867	119655
6.868	105475
6.870	91073
6.872	78252
6.873	67967
6.875	61536
6.877	58517
6.878	57049
6.880	54610
6.882	50649
6.883	46165
6.885	42837
6.887	41031
6.888	40503
6.890	40486
6.892	40881
6.893	40879
6.895	39664
6.897	38045
6.898	38040
6.900	39163
6.902	39519
6.903	39362
6.905	39777
6.907	40081
6.908	40803
6.910	43113
6.912	45784
6.913	46880
6.915	46739
6.917	46200
6.918	45690
6.920	45802
6.922	46403
6.923	46805
6.925	47267
6.927	47755
6.928	47785
6.930	47001
6.932	45945
6.933	45085
6.935	44033
6.937	42141
6.938	39952
6.940	38405
6.942	37287
6.943	36371
6.945	36117
6.947	36231
6.948	35790
6.950	35256
6.952	35319
6.953	36156
6.955	37734
6.957	39464
6.958	39869
6.960	38662
6.962	37570
6.963	38232
6.965	39706
6.967	40119
6.968	38857
6.970	36920
6.972	35120
6.973	33978
6.975	34443
6.977	35452
6.978	35463
6.980	34448
6.982	34218
6.983	35591
6.985	37729
6.987	39665
6.988	41377
6.990	43282
6.992	44993
6.993	45825
6.995	45836
6.997	45507
6.998	45043
7.000	44851
7.002	44868
7.003	44758
7.005	43766
7.007	42042
7.008	40283
7.010	39101
7.012	38164
7.013	36925
7.015	36034
7.017	36262
7.018	37628
7.020	38971
7.022	40417
7.023	42706
7.025	45513
7.027	47132
7.028	47147
7.030	45832
7.032	43391
7.033	40999
7.035	40177
7.037	40820
7.038	41693
7.040	42529
7.042	44005
7.043	46859
7.045	50161
7.047	51967
7.048	51998
7.050	51806
7.052	51863
7.053	50878
7.055	47650
7.057	43391
7.058	40453
7.060	40040
7.062	40511
7.063	40511
7.065	40383
7.067	40230
7.068	39247
7.070	38010
7.072	37609
7.073	37749
7.075	36810
7.077	35019
7.078	33181
7.080	32510
7.082	33570
7.083	36474
7.085	39284
7.087	40457
7.088	40038
7.090	39063
7.092	37689
7.093	37078
7.095	38441
7.097	41619
7.098	45988
7.100	50741
7.102	55389
7.103	61037
7.105	69826
7.107	81519
7.108	92364
7.110	98466
7.112	99195
7.113	96698
7.115	92015
7.117	84554
7.118	76735
7.120	71079
7.122	67864
7.123	65799
7.125	65129
7.127	64965
7.128	65144
7.130	65794
7.132	66623
7.133	66827
7.135	66679
7.137	67599
7.138	70958
7.140	78670
7.142	90037
7.143	103081
7.145	115570
7.147	126308
7.148	133187
7.150	134387
7.152	129730
7.153	121568
7.155	112427
7.157	103489
7.158	95433
7.160	89302
7.162	84656
7.163	79718
7.165	75124
7.167	72607
7.168	70889
7.170	68198
7.172	65385
7.173	64281
7.175	64195
7.177	63476
7.178	62332
7.180	62181
7.182	62789
7.183	62509
7.185	60955
7.187	58801
7.188	56379
7.190	53653
7.192	50382
7.193	47095
7.195	45446
7.197	45548
7.198	45830
7.200	45751
7.202	45833
7.203	46598
7.205	47456
7.207	48295
7.208	49516
7.210	51162
7.212	52198
7.213	51913
7.215	50562
7.217	48332
7.218	44974
7.220	42350
7.222	41918
7.223	43019
7.225	42723
7.227	41335
7.228	40793
7.230	41940
7.232	42969
7.233	43386
7.235	43896
7.237	44948
7.238	45723
7.240	45709
7.242	44803
7.243	43653
7.245	42964
7.247	42364
7.248	42341
7.250	42624
7.252	43585
7.253	44324
7.255	44776
7.257	43930
7.258	42767
7.260	42249
7.262	41741
7.263	40092
7.265	38085
7.267	37053
7.268	38108
7.270	39141
7.272	39102
7.273	37952
7.275	37570
7.277	37381
7.278	37193
7.280	37538
7.282	38289
7.283	38926
7.285	39267
7.287	39329
7.288	38996
7.290	38903
7.292	39994
7.293	41786
7.295	42903
7.297	43058
7.298	43479
7.300	45747
7.302	49332
7.303	52238
7.305	53337
7.307	54829
7.308	58252
7.310	62984
7.312	67138
7.313	69426
7.315	69444
7.317	68460
7.318	68298
7.320	68738
7.322	68413
7.323	67437
7.325	67085
7.327	67493
7.328	67939
7.330	69028
7.332	71537
7.333	75319
7.335	80037
7.337	85226
7.338	90174
7.340	94220
7.342	96263
7.343	95498
7.345	92368
7.347	87180
7.348	81589
7.350	76187
7.352	71383
7.353	66745
7.355	62633
7.357	57674
7.358	53027
7.360	50346
7.362	49802
7.363	49495
7.365	48914
7.367	48029
7.368	48295
7.370	50722
7.372	54999
7.373	59879
7.375	64803
7.377	70653
7.378	77125
7.380	80708
7.382	79111
7.383	75311
7.385	72018
7.387	68601
7.388	65386
7.390	64067
7.392	63869
7.393	63506
7.395	63413
7.397	63597
7.398	63231
7.400	62946
7.402	63396
7.403	63650
7.405	63029
7.407	61376
7.408	58802
7.410	56185
7.412	54857
7.413	54540
7.415	54463
7.417	54062
7.418	53117
7.420	51048
7.422	48660
7.423	47068
7.425	46392
7.427	45497
7.428	44896
7.430	45772
7.432	48019
7.433	50521
7.435	52892
7.437	55570
7.438	59636
7.440	64669
7.442	67917
7.443	68123
7.445	67724
7.447	68705
7.448	68255
7.450	64194
7.452	58819
7.453	55783
7.455	54486
7.457	53362
7.458	52427
7.460	51731
7.462	51018
7.463	51144
7.465	52570
7.467	54133
7.468	53883
7.470	52931
7.472	51862
7.473	50971
7.475	49815
7.477	48755
7.478	47549
7.480	46685
7.482	46678
7.483	46919
7.485	46526
7.487	45821
7.488	45566
7.490	46100
7.492	47048
7.493	48408
7.495	49895
7.497	50470
7.498	50033
7.500	49973
7.502	50486
7.503	50613
7.505	50128
7.507	49716
7.508	50267
7.510	51566
7.512	52429
7.513	52595
7.515	53648
7.517	55764
7.518	57280
7.520	57891
7.522	58316
7.523	58833
7.525	59607
7.527	60490
7.528	60794
7.530	60433
7.532	59967
7.533	59588
7.535	58939
7.537	57694
7.538	56214
7.540	56201
7.542	57950
7.543	58414
7.545	56292
7.547	54545
7.548	54979
7.550	55829
7.552	55882
7.553	55828
7.555	55740
7.557	55798
7.558	56842
7.560	57666
7.562	57116
7.563	55200
7.565	53557
7.567	52448
7.568	51107
7.570	49126
7.572	46895
7.573	45265
7.575	44256
7.577	43604
7.578	44087
7.580	46787
7.582	50608
7.583	53205
7.585	53746
7.587	52870
7.588	51172
7.590	49627
7.592	48249
7.593	47149
7.595	47655
7.597	49865
7.598	51765
7.600	52689
7.602	54088
7.603	56094
7.605	57438
7.607	57629
7.608	57767
7.610	58777
7.612	59962
7.613	59553
7.615	57846
7.617	56982
7.618	57027
7.620	57220
7.622	58065
7.623	60238
7.625	62074
7.627	62718
7.628	62872
7.630	63057
7.632	62956
7.633	63590
7.635	65873
7.637	68115
7.638	68263
7.640	67471
7.642	67387
7.643	67044
7.645	66009
7.647	65156
7.648	63777
7.650	61301
7.652	57820
7.653	54774
7.655	52932
7.657	52564
7.658	52042
7.660	51559
7.662	51917
7.663	53191
7.665	54211
7.667	54862
7.668	55914
7.670	58227
7.672	61605
7.673	65099
7.675	68070
7.677	69355
7.678	69018
7.680	67541
7.682	65416
7.683	62447
7.685	59521
7.687	57732
7.688	57386
7.690	56876
7.692	55064
7.693	53325
7.695	53204
7.697	53963
7.698	53486
7.700	52405
7.702	52130
7.703	53598
7.705	54873
7.707	55068
7.708	54198
7.710	53709
7.712	54057
7.713	54400
7.715	54062
7.717	53491
7.718	53662
7.720	54533
7.722	55293
7.723	55465
7.725	55557
7.727	56398
7.728	57068
7.730	56043
7.732	53905
7.733	52399
7.735	51739
7.737	51662
7.738	51777
7.740	52708
7.742	54514
7.743	57187
7.745	60591
7.747	65860
7.748	74420
7.750	86370
7.752	101099
7.753	117189
7.755	132993
7.757	146546
7.758	154338
7.760	154946
7.762	148982
7.763	138257
7.765	123615
7.767	107343
7.768	92131
7.770	79811
7.772	71452
7.773	67075
7.775	65205
7.777	64100
7.778	63473
7.780	63570
7.782	63721
7.783	63486
7.785	64175
7.787	66283
7.788	67994
7.790	66991
7.792	63491
7.793	61092
7.795	60058
7.797	58617
7.798	56406
7.800	56881
7.802	59568
7.803	61511
7.805	61317
7.807	60464
7.808	60298
7.810	61283
7.812	62586
7.813	63107
7.815	62793
7.817	62528
7.818	62574
7.820	62771
7.822	62697
7.823	61608
7.825	60026
7.827	60203
7.828	62530
7.830	63757
7.832	61479
7.833	57492
7.835	54846
7.837	54532
7.838	55807
7.840	57004
7.842	56735
7.843	56398
7.845	57006
7.847	57768
7.848	56904
7.850	55489
7.852	55095
7.853	56361
7.855	57610
7.857	57454
7.858	55821
7.860	53873
7.862	53537
7.863	55190
7.865	56687
7.867	56871
7.868	57700
7.870	59556
7.872	60288
7.873	59612
7.875	58758
7.877	58191
7.878	57572
7.880	56724
7.882	54835
7.883	52320
7.885	50892
7.887	51447
7.888	52723
7.890	53371
7.892	53456
7.893	53596
7.895	54148
7.897	54769
7.898	55006
7.900	54677
7.902	54154
7.903	53692
7.905	53420
7.907	54084
7.908	55972
7.910	58358
7.912	60138
7.913	61619
7.915	62063
7.917	60715
7.918	58881
7.920	58755
7.922	60491
7.923	62500
7.925	64427
7.927	66127
7.928	67455
7.930	68440
7.932	68913
7.933	69440
7.935	71015
7.937	73053
7.938	74102
7.940	75174
7.942	76223
7.943	76634
7.945	75139
7.947	73050
7.948	71612
7.950	71923
7.952	72029
7.953	70592
7.955	68390
7.957	66963
7.958	66891
7.960	67111
7.962	66001
7.963	64076
7.965	63246
7.967	63169
7.968	63271
7.970	64591
7.972	66975
7.973	67839
7.975	65668
7.977	62475
7.978	61203
7.980	61793
7.982	61879
7.983	61046
7.985	61532
7.987	63945
7.988	65269
7.990	64371
7.992	62985
7.993	62426
7.995	62420
7.997	63079
7.998	63449
8.000	62019
8.002	59259
8.003	57792
8.005	58558
8.007	61048
8.008	63137
8.010	64299
8.012	64125
8.013	63608
8.015	62697
8.017	61699
8.018	60253
8.020	59382
8.022	59645
8.023	59669
8.025	58390
8.027	57290
8.028	57908
8.030	58932
8.032	58093
8.033	56291
8.035	55929
8.037	57363
8.038	59545
8.040	61452
8.042	62950
8.043	64774
8.045	66729
8.047	67056
8.048	65584
8.050	64577
8.052	64518
8.053	64023
8.055	62818
8.057	61535
8.058	60987
8.060	61327
8.062	62354
8.063	63178
8.065	62908
8.067	62156
8.068	61313
8.070	60756
8.072	61004
8.073	62081
8.075	62341
8.077	60850
8.078	59405
8.080	58768
8.082	57924
8.083	56122
8.085	54377
8.087	54451
8.088	56736
8.090	59706
8.092	61628
8.093	62233
8.095	61947
8.097	61039
8.098	59779
8.100	58482
8.102	57800
8.103	58622
8.105	59794
8.107	59263
8.108	57369
8.110	56282
8.112	55762
8.113	54486
8.115	53604
8.117	54639
8.118	55856
8.120	55542
8.122	55248
8.123	56692
8.125	58550
8.127	58993
8.128	58585
8.130	59110
8.132	60171
8.133	60897
8.135	61185
8.137	61762
8.138	61820
8.140	60615
8.142	59788
8.143	61077
8.145	64146
8.147	66808
8.148	69444
8.150	73965
8.152	80661
8.153	87126
8.155	91505
8.157	93286
8.158	92381
8.160	89450
8.162	86210
8.163	83963
8.165	82646
8.167	81639
8.168	80561
8.170	79518
8.172	78263
8.173	75798
8.175	72586
8.177	70511
8.178	69735
8.180	69140
8.182	68442
8.183	68924
8.185	70174
8.187	70474
8.188	70075
8.190	70586
8.192	71682
8.193	71521
8.195	69704
8.197	67950
8.198	67645
8.200	68250
8.202	67472
8.203	65249
8.205	64080
8.207	64537
8.208	64162
8.210	62695
8.212	61734
8.213	61761
8.215	61912
8.217	62040
8.218	61723
8.220	60854
8.222	60954
8.223	62363
8.225	63826
8.227	65004
8.228	66386
8.230	66529
8.232	64614
8.233	62190
8.235	61210
8.237	60582
8.238	59559
8.240	58991
8.242	59763
8.243	60367
8.245	60008
8.247	59381
8.248	56836
8.250	54230
8.252	54617
8.253	58710
8.255	63584
8.257	70058
8.258	81679
8.260	102383
8.262	134688
8.263	176908
8.265	228574
8.267	291012
8.268	361458
8.270	430070
8.272	486483
8.273	525502
8.275	546797
8.277	550764
8.278	540307
8.280	520986
8.282	497879
8.283	472512
8.285	445991
8.287	419638
8.288	393709
8.290	368282
8.292	343502
8.293	320648
8.295	300756
8.297	283636
8.298	267956
8.300	253483
8.302	241288
8.303	232527
8.305	225874
8.307	217866
8.308	207298
8.310	196111
8.312	185664
8.313	177041
8.315	171184
8.317	167516
8.318	163291
8.320	158502
8.322	154569
8.323	150867
8.325	145665
8.327	140619
8.328	138720
8.330	137974
8.332	134229
8.333	128065
8.335	124052
8.337	122865
8.338	121069
8.340	117297
8.342	113717
8.343	111541
8.345	109331
8.347	106173
8.348	103850
8.350	102850
8.352	101817
8.353	100567
8.355	100664
8.357	101550
8.358	101486
8.360	100620
8.362	99379
8.363	98357
8.365	98891
8.367	101291
8.368	103973
8.370	105194
8.372	104675
8.373	103595
8.375	103961
8.377	104152
8.378	102977
8.380	101347
8.382	100485
8.383	98621
8.385	96062
8.387	93968
8.388	92343
8.390	90858
8.392	89293
8.393	86135
8.395	81749
8.397	79510
8.398	80209
8.400	80087
8.402	77463
8.403	74362
8.405	73403
8.407	73942
8.408	75403
8.410	76777
8.412	76972
8.413	74720
8.415	72034
8.417	70810
8.418	70199
8.420	68772
8.422	67170
8.423	66394
8.425	66795
8.427	67307
8.428	65688
8.430	62919
8.432	62099
8.433	64065
8.435	66317
8.437	67699
8.438	68103
8.440	67755
8.442	67707
8.443	68063
8.445	67415
8.447	65338
8.448	63892
8.450	63857
8.452	64802
8.453	66574
8.455	68245
8.457	67938
8.458	66248
8.460	64898
8.462	63819
8.463	63264
8.465	64362
8.467	66292
8.468	66952
8.470	66567
8.472	66669
8.473	67348
8.475	67876
8.477	67728
8.478	67432
8.480	67368
8.482	67939
8.483	68858
8.485	69648
8.487	69872
8.488	69508
8.490	68788
8.492	67792
8.493	66829
8.495	66242
8.497	66723
8.498	68365
8.500	69726
8.502	69471
8.503	68405
8.505	67178
8.507	65568
8.508	64498
8.510	65105
8.512	66306
8.513	66171
8.515	65028
8.517	63329
8.518	61518
8.520	60624
8.522	60857
8.523	61068
8.525	60092
8.527	59511
8.528	60191
8.530	61591
8.532	62627
8.533	63407
8.535	64117
8.537	63911
8.538	62825
8.540	61271
8.542	60466
8.543	60877
8.545	61867
8.547	61292
8.548	59667
8.550	58328
8.552	58241
8.553	58661
8.555	60721
8.557	64039
8.558	66279
8.560	65994
8.562	65532
8.563	67097
8.565	69266
8.567	70292
8.568	70060
8.570	69176
8.572	66675
8.573	63774
8.575	62239
8.577	62609
8.578	62656
8.580	61970
8.582	61549
8.583	61299
8.585	60474
8.587	59054
8.588	58292
8.590	58361
8.592	58548
8.593	58578
8.595	58646
8.597	58868
8.598	58542
8.600	57203
8.602	56442
8.603	56666
8.605	56664
8.607	55515
8.608	55246
8.610	56140
8.612	56497
8.613	56277
8.615	56119
8.617	55523
8.618	54112
8.620	54190
8.622	56044
8.623	57064
8.625	55851
8.627	54294
8.628	53156
8.630	52004
8.632	51093
8.633	50903
8.635	52456
8.637	55707
8.638	58644
8.640	59308
8.642	59211
8.643	59436
8.645	59038
8.647	57485
8.648	56511
8.650	57097
8.652	58725
8.653	61166
8.655	62992
8.657	62586
8.658	60610
8.660	60255
8.662	61423
8.663	62069
8.665	61914
8.667	61056
8.668	58861
8.670	56776
8.672	57336
8.673	60137
8.675	61735
8.677	61196
8.678	59976
8.680	58805
8.682	57268
8.683	56656
8.685	58014
8.687	58963
8.688	57239
8.690	54933
8.692	54072
8.693	53700
8.695	53175
8.697	53586
8.698	55011
8.700	56236
8.702	56641
8.703	55763
8.705	54481
8.707	54316
8.708	55849
8.710	57633
8.712	58476
8.713	57514
8.715	55191
8.717	53093
8.718	53256
8.720	55186
8.722	57212
8.723	57405
8.725	56020
8.727	54211
8.728	52833
8.730	52140
8.732	52259
8.733	53021
8.735	54054
8.737	55728
8.738	57501
8.740	57715
8.742	56320
8.743	54866
8.745	54634
8.747	54896
8.748	55322
8.750	55268
8.752	55184
8.753	54451
8.755	53442
8.757	52498
8.758	52339
8.760	52976
8.762	53923
8.763	54894
8.765	54597
8.767	53486
8.768	52638
8.770	52767
8.772	52815
8.773	52880
8.775	52548
8.777	52048
8.778	50991
8.780	49964
8.782	49295
8.783	49947
8.785	50964
8.787	50535
8.788	48667
8.790	46858
8.792	45844
8.793	44580
8.795	44200
8.797	44344
8.798	44677
8.800	44889
8.802	46340
8.803	47915
8.805	48276
8.807	47097
8.808	45868
8.810	45572
8.812	46260
8.813	46233
8.815	45169
8.817	44176
8.818	44990
8.820	47273
8.822	48721
8.823	48595
8.825	48056
8.827	47755
8.828	47687
8.830	48391
8.832	49471
8.833	49720
8.835	49742
8.837	49564
8.838	48418
8.840	46951
8.842	46397
8.843	46081
8.845	45679
8.847	46460
8.848	48500
8.850	50164
8.852	50450
8.853	50366
8.855	50996
8.857	52147
8.858	52807
8.860	52182
8.862	51316
8.863	51692
8.865	52207
8.867	51145
8.868	49936
8.870	49188
8.872	47926
8.873	47030
8.875	48197
8.877	49700
8.878	49181
8.880	48337
8.882	48644
8.883	49228
8.885	48058
8.887	46401
8.888	45606
8.890	45656
8.892	45506
8.893	45376
8.895	45331
8.897	45063
8.898	45026
8.900	45799
8.902	47246
8.903	48468
8.905	49362
8.907	49738
8.908	49748
